File: silicates_UV_vis/Allylsilicates_plot/is_2_7_allyl_fluoro.csv
is_2_7_7uM,,is_2_7_15uM,,is_2_7_31uM,,is_2_7_62uM,,is_2_7_125uM,,is_2_7_250uM,,
Wavelength (nm),Abs,Wavelength (nm),Abs,Wavelength (nm),Abs,Wavelength (nm),Abs,Wavelength (nm),Abs,Wavelength (nm),Abs,
799.953,0.000261527,799.953,-0.000132309,799.953,0.000266215,799.953,-5.79842e-06,799.953,-0.000433994,799.953,0.000531505,
793.005,-0.000326144,793.005,0.000884803,793.005,-0.00010907,793.005,9.26299e-05,793.005,0.000330534,793.005,0.000201569,
786.038,-0.00169997,786.038,-0.000938646,786.038,-0.000574134,786.038,-0.000854586,786.038,-0.000853811,786.038,-0.00053401,
779.053,-0.00230935,779.053,-0.00151933,779.053,-0.00156313,779.053,-0.0019281,779.053,-0.00196789,779.053,-0.000884864,
772.048,-0.00279562,772.048,-0.00252867,772.048,-0.00210238,772.048,-0.00232042,772.048,-0.00227788,772.048,-0.00181304,
765.025,-0.00363652,765.025,-0.00299316,765.025,-0.00279146,765.025,-0.00290441,765.025,-0.00346881,765.025,-0.00206797,
757.983,-0.00460551,757.983,-0.00393265,757.983,-0.00385676,757.983,-0.00396882,757.983,-0.00414351,757.983,-0.00345186,
751.065,-0.00580392,751.065,-0.00521032,751.065,-0.00489325,751.065,-0.00491107,751.065,-0.00517431,751.065,-0.00446989,
743.987,-0.00778709,743.987,-0.00727451,743.987,-0.0071057,743.987,-0.0072184,743.987,-0.00720623,743.987,-0.00646022,
737.034,-0.00904558,737.034,-0.00906622,737.034,-0.00867731,737.034,-0.00832823,737.034,-0.00875327,737.034,-0.00819585,
730.063,-0.00963766,730.063,-0.0092746,730.063,-0.00912868,730.063,-0.00899421,730.063,-0.00898356,730.063,-0.00850864,
722.933,-0.0143499,722.933,-0.0137312,722.933,-0.0136303,722.933,-0.0133417,722.933,-0.0136178,722.933,-0.0126589,
715.928,-0.014672,715.928,-0.0143051,715.928,-0.0142667,715.928,-0.0138422,715.928,-0.0140967,715.928,-0.0135828,
709.051,-0.0101453,709.051,-0.00981885,709.051,-0.00953496,709.051,-0.00922063,709.051,-0.00964541,709.051,-0.00919164,
702.014,-0.00103891,702.014,-0.00085345,702.014,-0.000491917,702.014,-0.00019141,702.014,-0.000581165,702.014,-0.000154356,
694.961,0.00773499,694.961,0.00865245,694.961,0.00844745,694.961,0.00850178,694.961,0.00820693,694.961,0.00873015,
688.036,0.0134198,688.036,0.0146864,688.036,0.0139091,688.036,0.0143389,688.036,0.0139681,688.036,0.014927,
680.951,0.0167443,680.951,0.0177758,680.951,0.0174831,680.951,0.0174855,680.951,0.0173878,680.951,0.018071,
673.995,0.0183485,673.995,0.0188821,673.995,0.0188924,673.995,0.0194538,673.995,0.0186135,673.995,0.0194987,
667.024,0.017677,667.024,0.0181638,667.024,0.0183443,667.024,0.0183405,667.024,0.0185715,667.024,0.0184806,
660.039,0.0162915,660.039,0.0166297,660.039,0.0171279,660.039,0.0169484,660.039,0.0169191,660.039,0.0174066,
653.039,0.0157742,653.039,0.0162754,653.039,0.0169454,653.039,0.0168018,653.039,0.0165709,653.039,0.0170548,
646.024,0.0155948,646.024,0.0164799,646.024,0.0162164,646.024,0.0169808,646.024,0.0161919,646.024,0.0169621,
638.995,0.0157851,638.995,0.0161472,638.995,0.0162047,638.995,0.0167569,638.995,0.0164637,638.995,0.0166157,
631.952,0.0156814,631.952,0.016215,631.952,0.0165356,631.952,0.0168618,631.952,0.0163338,631.952,0.0167199,
625.042,0.0158665,625.042,0.0167663,625.042,0.0168146,625.042,0.0172306,625.042,0.0167744,625.042,0.0172581,
617.972,0.0158202,617.972,0.0167988,617.972,0.0169559,617.972,0.0169244,617.972,0.0168385,617.972,0.0172204,
611.035,0.0153242,611.035,0.0160221,611.035,0.0163351,611.035,0.0166775,611.035,0.0163147,611.035,0.0168832,
603.937,0.0152083,603.937,0.0158579,603.937,0.0162121,603.937,0.0165172,603.937,0.0160712,603.937,0.0167645,
596.974,0.0149642,596.974,0.0154868,596.974,0.01593,596.974,0.0162458,596.974,0.0157658,596.974,0.0161643,
589.999,0.0144767,589.999,0.0151379,589.999,0.0151822,589.999,0.0154278,589.999,0.0152126,589.999,0.0159137,
583.011,0.0133991,583.011,0.0141177,583.011,0.0144976,583.011,0.0147635,583.011,0.014269,583.011,0.0150688,
576.01,0.0124202,576.01,0.0130238,576.01,0.0133481,576.01,0.0136921,576.01,0.0135265,576.01,0.0139983,
568.998,0.0109784,568.998,0.0118609,568.998,0.0121786,568.998,0.0121548,568.998,0.0119989,568.998,0.0124948,
561.973,0.00906053,561.973,0.00998013,561.973,0.0101377,561.973,0.0102802,561.973,0.0100379,561.973,0.0106769,
554.936,0.00705756,554.936,0.00786134,554.936,0.00813179,554.936,0.0083919,554.936,0.0080577,554.936,0.00857852,
548.038,0.00500178,548.038,0.00567401,548.038,0.00611657,548.038,0.00628901,548.038,0.0061705,548.038,0.00654269,
540.978,0.00406755,540.978,0.00506096,540.978,0.00532555,540.978,0.00552014,540.978,0.00545026,540.978,0.00580126,
534.057,0.00527755,534.057,0.00605462,534.057,0.00645104,534.057,0.0065568,534.057,0.00616076,534.057,0.00673401,
526.974,0.00963757,526.974,0.0105349,526.974,0.0110077,526.974,0.0111856,526.974,0.0110173,526.974,0.0114104,
520.031,0.0157753,520.031,0.0169924,520.031,0.0171419,520.031,0.0171238,520.031,0.0171196,520.031,0.0173789,
512.927,0.0215888,512.927,0.0227423,512.927,0.0229157,512.927,0.0229417,512.927,0.022869,512.927,0.02372442,
505.962,0.0250479,505.962,0.0261335,505.962,0.026529,505.962,0.0268355,505.962,0.0265668,505.962,0.0271354,
498.988,0.026568,498.988,0.0278105,498.988,0.0281217,498.988,0.0279943,498.988,0.0277815,498.988,0.0286123,
492.003,0.0260213,492.003,0.0272112,492.003,0.0273391,492.003,0.0276929,492.003,0.0274649,492.003,0.0281389,
485.009,0.0243028,485.009,0.0253086,485.009,0.025563,485.009,0.0258,485.009,0.0256343,485.009,0.0260928,
478.004,0.0224217,478.004,0.0240932,478.004,0.0241829,478.004,0.024478,478.004,0.0239586,478.004,0.0247514,
470.99,0.0244926,470.99,0.0262293,470.99,0.0262764,470.99,0.0265073,470.99,0.0259624,470.99,0.0272138,
463.966,0.0304565,463.966,0.0316476,463.966,0.032303,463.966,0.0323278,463.966,0.0320316,463.966,0.03308,
456.933,0.0350983,456.933,0.0367546,456.933,0.0369672,456.933,0.0371082,456.933,0.036975,456.933,0.0376762,
450.044,0.03746,450.044,0.0389121,450.044,0.0395268,450.044,0.0395394,450.044,0.0391956,450.044,0.0401101,
442.992,0.0388924,442.992,0.0400807,442.992,0.040637,442.992,0.0408378,442.992,0.040501,442.992,0.0411085,
435.932,0.0385749,435.932,0.0398855,435.932,0.0403112,435.932,0.0403935,435.932,0.0401465,435.932,0.0410401,
429.016,0.0380707,429.016,0.03934,429.016,0.039749,429.016,0.0397071,429.016,0.0396145,429.016,0.0403212,
421.938,0.0374081,421.938,0.0387688,421.938,0.0393463,421.938,0.0392193,421.938,0.0391933,421.938,0.0398753,
415.005,0.0362084,415.005,0.0376628,415.005,0.0384621,415.005,0.0382379,415.005,0.0380308,415.005,0.0390498,
408.065,0.0345399,408.065,0.0360568,408.065,0.0366572,408.065,0.0366218,408.065,0.0364129,408.065,0.0374886,
400.962,0.0320784,400.962,0.0335352,400.962,0.0345052,400.962,0.0342317,400.962,0.0344493,400.962,0.0354756,
394.005,0.0309255,394.005,0.0325452,394.005,0.0333345,394.005,0.0333118,394.005,0.0332217,394.005,0.0342254,
387.041,0.0305692,387.041,0.0325215,387.041,0.0333465,387.041,0.0332682,387.041,0.0332009,387.041,0.0340894,
380.069,0.0324647,380.069,0.0344201,380.069,0.0351987,380.069,0.0350551,380.069,0.0349717,380.069,0.0363571,
372.935,0.0366224,372.935,0.0388306,372.935,0.0393974,372.935,0.0396155,372.935,0.0395069,372.935,0.0407762,
365.948,0.0413677,365.948,0.0435153,365.948,0.0445502,365.948,0.0444608,365.948,0.0444277,365.948,0.045705,
358.955,0.0441411,358.955,0.0466991,358.955,0.047356,358.955,0.0474149,358.955,0.0475024,358.955,0.049043,
351.954,0.0458322,351.954,0.0486912,351.954,0.0493288,351.954,0.0493574,351.954,0.0495819,351.954,0.051091,
344.946,0.0462669,344.946,0.0489908,344.946,0.0497322,344.946,0.0500927,344.946,0.0502582,344.946,0.0519379,
337.932,0.0460716,337.932,0.048826,337.932,0.0496065,337.932,0.0499208,337.932,0.0498784,337.932,0.0519952,
331.067,0.0447957,331.067,0.0479084,331.067,0.0488187,331.067,0.0489213,331.067,0.0492285,331.067,0.0514531,
324.04,0.0446686,324.04,0.0474656,324.04,0.0485299,324.04,0.0487758,324.04,0.0491763,324.04,0.0516421,
317.007,0.0471742,317.007,0.0482369,317.007,0.0492591,317.007,0.0496099,317.007,0.0502153,317.007,0.0533131,
309.967,0.0538466,309.967,0.0499652,309.967,0.051173,309.967,0.0515962,309.967,0.0527139,309.967,0.056334,
303.078,0.0641683,303.078,0.0522432,303.078,0.0534934,303.078,0.0542568,303.078,0.056263,303.078,0.0616036,
296.026,0.0768314,296.026,0.0551077,296.026,0.0570528,296.026,0.059331,296.026,0.0654482,296.026,0.0785742,
288.969,0.0933784,288.969,0.0658244,288.969,0.0747071,288.969,0.0897194,288.969,0.12671,288.969,0.197715,
282.063,0.126281,282.063,0.115362,282.063,0.162702,282.063,0.252743,282.063,0.458239,282.063,0.806801,
274.995,0.144828,274.995,0.147534,274.995,0.225344,274.995,0.369554,274.995,0.717059,274.995,1.2919,
268.078,0.132179,268.078,0.129165,268.078,0.195265,268.078,0.317376,268.078,0.614542,268.078,1.10344,
261,0.105285,261,0.0951741,261,0.137532,261,0.215163,261,0.405108,261,0.724545,
254.073,0.0853879,254.073,0.0776445,254.073,0.106747,254.073,0.158555,254.073,0.28656,254.073,0.509322,
247.002,0.0825098,247.002,0.0943485,247.002,0.136568,247.002,0.2111,247.002,0.395094,247.002,0.716635,
239.951,0.099255,239.951,0.143921,239.951,0.225343,239.951,0.374289,239.951,0.730568,239.951,1.32961,
233.052,0.145111,233.052,0.232648,233.052,0.378392,233.052,0.65104,233.052,1.30104,233.052,2.30819,
225.992,0.193039,225.992,0.318231,225.992,0.528279,225.992,0.925244,225.992,1.87976,225.992,3.19998,
218.927,0.258163,218.927,0.433538,218.927,0.730198,218.927,1.27238,218.927,2.51102,218.927,3.28182,
212.016,0.47461,212.016,0.829604,212.016,1.41083,212.016,2.39263,212.016,3.25097,212.016,3.33208,
204.943,0.774577,204.943,1.36805,204.943,2.30128,204.943,3.12053,204.943,3.29073,204.943,3.19563,
200.068,0.985493,200.068,1.66224,200.068,2.62162,200.068,3.16226,200.068,3.17509,200.068,3.22677,

is_2_7_7uM,
is_2_7_7uM
Collection Time: 4/20/2024 5:08:45 PM
Operator Name  :
Scan Software Version: 3.00(339)
Parameter List :
Instrument                        Cary 50
Instrument Version                3.00
Start (nm)                        800.0
Stop (nm)                         200.0
X Mode                            Nanometers
Y Mode                            Abs
UV-Vis Scan Rate (nm/min)         300.00
UV-Vis Data Interval (nm)         0.50
UV-Vis Ave. Time (sec)            0.1000
Beam Mode                         Dual Beam
Baseline Correction               Off
Cycle Mode                        Off
Comments
Method Log     :
Method Name    :
Date/Time stamp: 4/20/2024 5:05:46 PM
Method Modifications:
UVVIS SAT Changed: 4/20/2024 5:05:56 PM, Old:0.0125, New:0.1000
Common SAT Changed: 4/20/2024 5:05:56 PM, Old:0.0125, New:0.1000
Common Interval nm Changed: 4/20/2024 5:06:01 PM, Old:     5.00, New:     0.50
End Method Modifications
<Current Wavelength> , 200.5

is_2_7_15uM,
is_2_7_15uM
Collection Time: 4/20/2024 5:12:48 PM
Operator Name  :
Scan Software Version: 3.00(339)
Parameter List :
Instrument                        Cary 50
Instrument Version                3.00
Start (nm)                        800.0
Stop (nm)                         200.0
X Mode                            Nanometers
Y Mode                            Abs
UV-Vis Scan Rate (nm/min)         300.00
UV-Vis Data Interval (nm)         0.50
UV-Vis Ave. Time (sec)            0.1000
Beam Mode                         Dual Beam
Baseline Correction               Off
Cycle Mode                        Off
Comments
Method Log     :
Method Name    :
Date/Time stamp: 4/20/2024 5:05:46 PM
Method Modifications:
UVVIS SAT Changed: 4/20/2024 5:05:56 PM, Old:0.0125, New:0.1000
Common SAT Changed: 4/20/2024 5:05:56 PM, Old:0.0125, New:0.1000
Common Interval nm Changed: 4/20/2024 5:06:01 PM, Old:     5.00, New:     0.50
End Method Modifications
<Current Wavelength> , 200.5

is_2_7_31uM,
is_2_7_31uM
Collection Time: 4/20/2024 5:18:22 PM
Operator Name  :
Scan Software Version: 3.00(339)
Parameter List :
Instrument                        Cary 50
Instrument Version                3.00
Start (nm)                        800.0
Stop (nm)                         200.0
X Mode                            Nanometers
Y Mode                            Abs
UV-Vis Scan Rate (nm/min)         300.00
UV-Vis Data Interval (nm)         0.50
UV-Vis Ave. Time (sec)            0.1000
Beam Mode                         Dual Beam
Baseline Correction               Off
Cycle Mode                        Off
Comments
Method Log     :
Method Name    :
Date/Time stamp: 4/20/2024 5:05:46 PM
Method Modifications:
UVVIS SAT Changed: 4/20/2024 5:05:56 PM, Old:0.0125, New:0.1000
Common SAT Changed: 4/20/2024 5:05:56 PM, Old:0.0125, New:0.1000
Common Interval nm Changed: 4/20/2024 5:06:01 PM, Old:     5.00, New:     0.50
End Method Modifications
<Current Wavelength> , 200.5

is_2_7_62uM,
is_2_7_62uM
Collection Time: 4/20/2024 5:21:37 PM
Operator Name  :
Scan Software Version: 3.00(339)
Parameter List :
Instrument                        Cary 50
Instrument Version                3.00
Start (nm)                        800.0
Stop (nm)                         200.0
X Mode                            Nanometers
Y Mode                            Abs
UV-Vis Scan Rate (nm/min)         300.00
UV-Vis Data Interval (nm)         0.50
UV-Vis Ave. Time (sec)            0.1000
Beam Mode                         Dual Beam
Baseline Correction               Off
Cycle Mode                        Off
Comments
Method Log     :
Method Name    :
Date/Time stamp: 4/20/2024 5:05:46 PM
Method Modifications:
UVVIS SAT Changed: 4/20/2024 5:05:56 PM, Old:0.0125, New:0.1000
Common SAT Changed: 4/20/2024 5:05:56 PM, Old:0.0125, New:0.1000
Common Interval nm Changed: 4/20/2024 5:06:01 PM, Old:     5.00, New:     0.50
End Method Modifications
<Current Wavelength> , 200.5

is_2_7_125uM,
is_2_7_125uM
Collection Time: 4/20/2024 5:25:01 PM
Operator Name  :
Scan Software Version: 3.00(339)
Parameter List :
Instrument                        Cary 50
Instrument Version                3.00
Start (nm)                        800.0
Stop (nm)                         200.0
X Mode                            Nanometers
Y Mode                            Abs
UV-Vis Scan Rate (nm/min)         300.00
UV-Vis Data Interval (nm)         0.50
UV-Vis Ave. Time (sec)            0.1000
Beam Mode                         Dual Beam
Baseline Correction               Off
Cycle Mode                        Off
Comments
Method Log     :
Method Name    :
Date/Time stamp: 4/20/2024 5:05:46 PM
Method Modifications:
UVVIS SAT Changed: 4/20/2024 5:05:56 PM, Old:0.0125, New:0.1000
Common SAT Changed: 4/20/2024 5:05:56 PM, Old:0.0125, New:0.1000
Common Interval nm Changed: 4/20/2024 5:06:01 PM, Old:     5.00, New:     0.50
End Method Modifications
<Current Wavelength> , 200.5

is_2_7_250uM,
is_2_7_250uM
Collection Time: 4/20/2024 5:28:25 PM
Operator Name  :
Scan Software Version: 3.00(339)
Parameter List :
Instrument                        Cary 50
Instrument Version                3.00
Start (nm)                        800.0
Stop (nm)                         200.0
X Mode                            Nanometers
Y Mode                            Abs
UV-Vis Scan Rate (nm/min)         300.00
UV-Vis Data Interval (nm)         0.50
UV-Vis Ave. Time (sec)            0.1000
Beam Mode                         Dual Beam
Baseline Correction               Off
Cycle Mode                        Off
Comments
Method Log     :
Method Name    :
Date/Time stamp: 4/20/2024 5:05:46 PM
Method Modifications:
UVVIS SAT Changed: 4/20/2024 5:05:56 PM, Old:0.0125, New:0.1000
Common SAT Changed: 4/20/2024 5:05:56 PM, Old:0.0125, New:0.1000
Common Interval nm Changed: 4/20/2024 5:06:01 PM, Old:     5.00, New:     0.50
End Method Modifications
<Current Wavelength> , 200.5