File: silicates_UV_vis/Allylsilicates_plot/is_2_5_allyl_nitrile.csv
is_2_5_7uM,,is_2_5_15uM1,,is_2_5_31uM,,is_2_5_62uM,,is_2_5_125uM,,is_2_5_250uM1,,
Wavelength (nm),Abs,Wavelength (nm),Abs,Wavelength (nm),Abs,Wavelength (nm),Abs,Wavelength (nm),Abs,Wavelength (nm),Abs,
799.953,-0.000330852,799.953,0.000673661,799.953,-0.000929708,799.953,0.00389291,799.953,0.00264012,799.953,0.00442795,
793.562,0.000252565,793.562,-1.09755e-05,793.562,-0.000592695,793.562,0.00315776,793.562,0.00205656,793.562,0.00409434,
787.015,-0.00122779,787.015,-0.00121783,787.015,-0.0013315,787.015,0.00257015,787.015,7.80791e-05,787.015,0.00231709,
780.451,-0.00183573,780.451,-0.00128076,780.451,-0.00190955,780.451,0.00224514,780.451,7.38848e-05,780.451,0.00165641,
774.011,-0.00273353,774.011,-0.00273636,774.011,-0.0024807,774.011,0.0018196,774.011,-0.000507483,774.011,0.00149742,
767.555,-0.00321553,767.555,-0.0029585,767.555,-0.00344225,767.555,0.00118227,767.555,-0.000772578,767.555,0.00106898,
760.943,-0.00369745,760.943,-0.00426437,760.943,-0.00387678,760.943,8.6416e-05,760.943,-0.0013125,760.943,0.000539669,
754.455,-0.00498462,754.455,-0.00513537,754.455,-0.00574446,754.455,-0.00115732,754.455,-0.00197438,754.455,-0.000787358,
747.953,-0.00602139,747.953,-0.00638829,747.953,-0.00635376,747.953,-0.00235091,747.953,-0.00376192,747.953,-0.00187836,
741.435,-0.00818168,741.435,-0.00820901,741.435,-0.00861179,741.435,-0.00383316,741.435,-0.00592135,741.435,-0.00359462,
735.044,-0.00920613,735.044,-0.00915985,735.044,-0.00934291,735.044,-0.00481758,735.044,-0.00673598,735.044,-0.004425,
728.496,-0.0105575,728.496,-0.0104714,728.496,-0.0111099,728.496,-0.00623466,728.496,-0.00806313,728.496,-0.00564594,
721.933,-0.0142988,721.933,-0.0142479,721.933,-0.0147538,721.933,-0.00999237,721.933,-0.0119662,721.933,-0.00897251,
715.499,-0.0142799,715.499,-0.0143127,715.499,-0.0146056,715.499,-0.0102203,715.499,-0.0117822,715.499,-0.00980179,
709.051,-0.00943365,709.051,-0.00925266,709.051,-0.00997481,709.051,-0.00546873,709.051,-0.0072405,709.051,-0.00542849,
702.445,-0.00119764,702.445,-0.00123017,702.445,-0.00138791,702.445,0.00330769,702.445,0.00116641,702.445,0.00253635,
695.969,0.00744483,695.969,0.00802034,695.969,0.0072578,695.969,0.0126575,695.969,0.0100836,695.969,0.0115011,
689.479,0.0133323,689.479,0.0131281,689.479,0.0126678,689.479,0.0177242,689.479,0.0156215,689.479,0.0172547,
682.976,0.016575,682.976,0.0164838,682.976,0.0158059,682.976,0.0213975,682.976,0.0189177,682.976,0.0207361,
676.46,0.0187471,676.46,0.0187379,676.46,0.0181047,676.46,0.023541,676.46,0.0208429,676.46,0.0229877,
669.931,0.0198844,669.931,0.0201921,669.931,0.0194741,669.931,0.0250239,669.931,0.022266,669.931,0.024038,
663.533,0.0172451,663.533,0.0172072,663.533,0.0167991,663.533,0.0221002,663.533,0.0194775,663.533,0.0221655,
656.978,0.016564,656.978,0.0167085,656.978,0.0162324,656.978,0.0217469,656.978,0.0189463,656.978,0.0213123,
650.556,0.0162211,650.556,0.0164916,650.556,0.0160656,650.556,0.0213252,650.556,0.0189464,650.556,0.0206583,
643.976,0.0168455,643.976,0.0169119,643.976,0.0164272,643.976,0.0216914,643.976,0.019725,643.976,0.0218445,
637.529,0.0163941,637.529,0.0163347,637.529,0.0158509,637.529,0.021339,637.529,0.0187828,637.529,0.0231119,
631.071,0.0166663,631.071,0.0162728,631.071,0.0161986,631.071,0.0218054,631.071,0.0188992,631.071,0.0219743,
624.454,0.0164929,624.454,0.0166311,624.454,0.0161632,624.454,0.0220803,624.454,0.019059,624.454,0.0221753,
617.972,0.0166275,617.972,0.0165937,617.972,0.0162979,617.972,0.0220516,617.972,0.0191128,617.972,0.0213974,
611.478,0.0163532,611.478,0.0162184,611.478,0.0159036,611.478,0.0220436,611.478,0.0189583,611.478,0.0214466,
604.973,0.0161035,604.973,0.015845,604.973,0.0154553,604.973,0.0220735,604.973,0.0187738,604.973,0.0211273,
598.457,0.0156311,598.457,0.0153473,598.457,0.0150235,598.457,0.0213335,598.457,0.0185626,598.457,0.0206096,
591.93,0.0151972,591.93,0.0151847,591.93,0.0148232,591.93,0.020968,591.93,0.018202,591.93,0.0200861,
585.54,0.0146207,585.54,0.0145047,585.54,0.0140015,585.54,0.0203199,585.54,0.0178335,585.54,0.0196729,
578.991,0.0138995,578.991,0.0136834,578.991,0.0131638,578.991,0.0195078,578.991,0.0167827,578.991,0.0189872,
572.431,0.0125908,572.431,0.0125392,572.431,0.0119541,572.431,0.0185144,572.431,0.015759,572.431,0.0179114,
566.01,0.0111759,566.01,0.01118166,566.01,0.0106234,566.01,0.0170833,566.01,0.0143551,566.01,0.0163886,
559.429,0.00925754,559.429,0.0092568,559.429,0.00895309,559.429,0.015408,559.429,0.0125164,559.429,0.0141053,
552.988,0.00756928,552.988,0.00753646,552.988,0.00694781,552.988,0.0136278,552.988,0.0107079,552.988,0.0123761,
546.536,0.00573114,546.536,0.00565466,546.536,0.00512903,546.536,0.0119639,546.536,0.00883222,546.536,0.0106706,
539.925,0.00519803,539.925,0.0051809,539.925,0.00475609,539.925,0.0116085,539.925,0.00836165,539.925,0.0101761,
533.454,0.00699068,533.454,0.00683235,533.454,0.00662479,533.454,0.013255,533.454,0.0100406,533.454,0.012115,
526.974,0.0111501,526.974,0.0112886,526.974,0.0109348,526.974,0.017751,526.974,0.0143608,526.974,0.0164127,
520.484,0.0170636,520.484,0.0168828,520.484,0.0173377,520.484,0.0238947,520.484,0.0204231,520.484,0.0224841,
513.985,0.0223459,513.985,0.0223374,513.985,0.022859,513.985,0.0292555,513.985,0.0259723,513.985,0.0280413,
507.477,0.026357,507.477,0.0260413,507.477,0.0267475,507.477,0.0332096,507.477,0.0299435,507.477,0.0316161,
500.96,0.0280322,500.96,0.0278204,500.96,0.028789,500.96,0.0351944,500.96,0.0317581,500.96,0.0334498,
494.434,0.0281119,494.434,0.027618,494.434,0.0282704,494.434,0.0350097,494.434,0.0317217,494.434,0.0335433,
488.051,0.0266831,488.051,0.0264681,488.051,0.0266,488.051,0.0337231,488.051,0.0305209,488.051,0.0328213,
481.508,0.0251342,481.508,0.0248544,481.508,0.024369,481.508,0.0324098,481.508,0.0291731,481.508,0.0312842,
474.956,0.0248776,474.956,0.024702,474.956,0.0239368,474.956,0.0324574,474.956,0.02897,474.956,0.0308792,
468.548,0.028476,468.548,0.0284357,468.548,0.0275206,468.548,0.0359874,468.548,0.0329667,468.548,0.0345213,
461.98,0.0342472,461.98,0.0338824,461.98,0.033114,461.98,0.0418249,461.98,0.0384793,461.98,0.0403319,
455.556,0.0377328,455.556,0.0377442,455.556,0.0365989,455.556,0.0462242,455.556,0.0423653,455.556,0.0438705,
448.971,0.0399253,448.971,0.0396315,448.971,0.0386535,448.971,0.048039,448.971,0.0442124,448.971,0.0462437,
442.532,0.0406089,442.532,0.0405992,442.532,0.0395807,442.532,0.0495192,442.532,0.0451056,442.532,0.0472097,
435.932,0.0403608,435.932,0.0401416,435.932,0.0392614,435.932,0.0495403,435.932,0.0450118,435.932,0.0468953,
429.477,0.0396458,429.477,0.0396488,429.477,0.0388259,429.477,0.0487211,429.477,0.0447943,429.477,0.0463167,
423.016,0.0392021,423.016,0.0392041,423.016,0.0383529,423.016,0.04784,423.016,0.0445563,423.016,0.0457151,
416.547,0.0384285,416.547,0.0381722,416.547,0.0376597,416.547,0.0471639,416.547,0.0441732,416.547,0.0452097,
410.071,0.036995,410.071,0.0369633,410.071,0.0360469,410.071,0.0460241,410.071,0.0428461,410.071,0.0438952,
403.433,0.0353172,403.433,0.0350443,403.433,0.0343386,403.433,0.0441592,403.433,0.0408605,403.433,0.0423358,
396.943,0.0334093,396.943,0.0331169,396.943,0.0325075,396.943,0.0426721,396.943,0.0392605,396.943,0.0409971,
390.447,0.0329791,390.447,0.0325359,390.447,0.0317562,390.447,0.0424507,390.447,0.0391759,390.447,0.0408856,
383.944,0.0337737,383.944,0.0335712,383.944,0.0326168,383.944,0.0436338,383.944,0.0401584,383.944,0.0425506,
377.434,0.036447,377.434,0.0363683,377.434,0.0354398,377.434,0.046113,377.434,0.0431929,377.434,0.0452491,
371.073,0.0410749,371.073,0.0406695,371.073,0.0397964,371.073,0.0513606,371.073,0.0478746,371.073,0.0500412,
364.55,0.0457899,364.55,0.0451511,364.55,0.0446248,364.55,0.0563768,364.55,0.0528453,364.55,0.0549646,
358.022,0.0485867,358.022,0.0473591,358.022,0.0466729,358.022,0.0585187,358.022,0.0557234,358.022,0.0580663,
351.487,0.0499519,351.487,0.0485824,351.487,0.0479035,351.487,0.0601831,351.487,0.0571166,351.487,0.0600798,
344.946,0.0503614,344.946,0.0491386,344.946,0.0484493,344.946,0.0609651,344.946,0.0580728,344.946,0.0616528,
338.556,0.0499531,338.556,0.0490497,338.556,0.0484395,338.556,0.0615958,338.556,0.0591761,338.556,0.0646995,
332.004,0.050488,332.004,0.0502249,332.004,0.0508567,332.004,0.0669089,332.004,0.0694279,332.004,0.0844214,
325.446,0.0618938,325.446,0.0708894,325.446,0.0902303,325.446,0.138159,325.446,0.200913,325.446,0.321616,
319.039,0.142112,319.039,0.218348,319.039,0.361522,319.039,0.627424,319.039,1.11776,319.039,1.93163,
312.471,0.225274,312.471,0.374575,312.471,0.661991,312.471,1.19212,312.471,2.21767,312.471,3.1548,
306.053,0.262123,306.053,0.435097,306.053,0.772526,306.053,1.39604,306.053,2.35462,306.053,2.61981,
299.474,0.279099,299.474,0.451561,299.474,0.806283,299.474,1.47731,299.474,2.75036,299.474,3.37441,
293.047,0.274402,293.047,0.423636,293.047,0.753244,293.047,1.3807,293.047,2.59533,293.047,3.37809,
286.458,0.260651,286.458,0.37891,286.458,0.669093,286.458,1.22076,286.458,2.30654,286.458,3.39405,
280.022,0.262615,280.022,0.371426,280.022,0.65527,280.022,1.19429,280.022,2.24473,280.022,3.34856,
273.423,0.261909,273.423,0.368727,273.423,0.652464,273.423,1.19855,273.423,2.26517,273.423,3.4832,
266.978,0.243472,266.978,0.340589,266.978,0.600166,266.978,1.10673,266.978,2.10526,266.978,3.47111,
260.527,0.233956,260.527,0.338506,260.527,0.602197,260.527,1.11345,260.527,2.11672,260.527,3.31099,
254.073,0.266192,254.073,0.412959,254.073,0.746855,254.073,1.37654,254.073,2.59407,254.073,3.48714,
247.472,0.263632,247.472,0.403165,247.472,0.724218,247.472,1.33265,247.472,2.5089,247.472,3.54471,
241.048,0.321233,241.048,0.481472,241.048,0.853716,241.048,1.54467,241.048,2.7337,241.048,3.23375,
234.464,0.632242,234.464,1.02258,234.464,1.84251,234.464,2.99959,234.464,3.33345,234.464,3.39986,
228.032,0.720043,228.032,1.1486,228.032,2.05899,228.032,3.3299,228.032,3.39852,228.032,3.44783,
221.44,0.715539,221.44,1.11175,221.44,1.96684,221.44,3.10706,221.44,3.20219,221.44,3.33461,
215.001,0.850053,215.001,1.37038,215.001,2.41596,215.001,3.2525,215.001,3.33029,215.001,3.48988,
208.558,0.918604,208.558,1.46297,208.558,2.53331,208.558,3.20293,208.558,3.32054,208.558,3.32856,
201.955,0.978408,201.955,1.32632,201.955,2.2213,201.955,3.06203,201.955,3.2009,201.955,3.23587,
200.068,1.03802,200.068,1.26541,200.068,2.05692,200.068,3.09361,200.068,3.1874,200.068,3.14882,

is_2_5_7uM,
is_2_5_7uM
Collection Time: 4/26/2024 1:58:11 PM
Operator Name  :
Scan Software Version: 3.00(339)
Parameter List :
Instrument                        Cary 50
Instrument Version                3.00
Start (nm)                        800.0
Stop (nm)                         200.0
X Mode                            Nanometers
Y Mode                            Abs
UV-Vis Scan Rate (nm/min)         300.00
UV-Vis Data Interval (nm)         0.50
UV-Vis Ave. Time (sec)            0.1000
Beam Mode                         Dual Beam
Baseline Correction               Off
Cycle Mode                        Off
Comments
Method Log     :
Method Name    :
Date/Time stamp: 4/20/2024 5:05:46 PM
Method Modifications:
UVVIS SAT Changed: 4/26/2024 1:57:00 PM, Old:0.0125, New:0.1000
Common SAT Changed: 4/26/2024 1:57:00 PM, Old:0.0125, New:0.1000
Common Interval nm Changed: 4/26/2024 1:57:01 PM, Old:     5.00, New:     0.50
End Method Modifications
<Current Wavelength> , 200.5

is_2_5_15uM1,
is_2_5_15uM1
Collection Time: 4/26/2024 2:02:44 PM
Operator Name  :
Scan Software Version: 3.00(339)
Parameter List :
Instrument                        Cary 50
Instrument Version                3.00
Start (nm)                        800.0
Stop (nm)                         200.0
X Mode                            Nanometers
Y Mode                            Abs
UV-Vis Scan Rate (nm/min)         300.00
UV-Vis Data Interval (nm)         0.50
UV-Vis Ave. Time (sec)            0.1000
Beam Mode                         Dual Beam
Baseline Correction               Off
Cycle Mode                        Off
Comments
Method Log     :
Method Name    :
Date/Time stamp: 4/20/2024 5:05:46 PM
Method Modifications:
UVVIS SAT Changed: 4/26/2024 1:57:00 PM, Old:0.0125, New:0.1000
Common SAT Changed: 4/26/2024 1:57:00 PM, Old:0.0125, New:0.1000
Common Interval nm Changed: 4/26/2024 1:57:01 PM, Old:     5.00, New:     0.50
End Method Modifications
<Current Wavelength> , 200.5

is_2_5_31uM,
is_2_5_31uM
Collection Time: 4/26/2024 2:06:42 PM
Operator Name  :
Scan Software Version: 3.00(339)
Parameter List :
Instrument                        Cary 50
Instrument Version                3.00
Start (nm)                        800.0
Stop (nm)                         200.0
X Mode                            Nanometers
Y Mode                            Abs
UV-Vis Scan Rate (nm/min)         300.00
UV-Vis Data Interval (nm)         0.50
UV-Vis Ave. Time (sec)            0.1000
Beam Mode                         Dual Beam
Baseline Correction               Off
Cycle Mode                        Off
Comments
Method Log     :
Method Name    :
Date/Time stamp: 4/20/2024 5:05:46 PM
Method Modifications:
UVVIS SAT Changed: 4/26/2024 1:57:00 PM, Old:0.0125, New:0.1000
Common SAT Changed: 4/26/2024 1:57:00 PM, Old:0.0125, New:0.1000
Common Interval nm Changed: 4/26/2024 1:57:01 PM, Old:     5.00, New:     0.50
End Method Modifications
<Current Wavelength> , 200.5

is_2_5_62uM,
is_2_5_62uM
Collection Time: 4/26/2024 2:10:49 PM
Operator Name  :
Scan Software Version: 3.00(339)
Parameter List :
Instrument                        Cary 50
Instrument Version                3.00
Start (nm)                        800.0
Stop (nm)                         200.0
X Mode                            Nanometers
Y Mode                            Abs
UV-Vis Scan Rate (nm/min)         300.00
UV-Vis Data Interval (nm)         0.50
UV-Vis Ave. Time (sec)            0.1000
Beam Mode                         Dual Beam
Baseline Correction               Off
Cycle Mode                        Off
Comments
Method Log     :
Method Name    :
Date/Time stamp: 4/20/2024 5:05:46 PM
Method Modifications:
UVVIS SAT Changed: 4/26/2024 1:57:00 PM, Old:0.0125, New:0.1000
Common SAT Changed: 4/26/2024 1:57:00 PM, Old:0.0125, New:0.1000
Common Interval nm Changed: 4/26/2024 1:57:01 PM, Old:     5.00, New:     0.50
End Method Modifications
<Current Wavelength> , 200.5

is_2_5_125uM,
is_2_5_125uM
Collection Time: 4/26/2024 2:14:42 PM
Operator Name  :
Scan Software Version: 3.00(339)
Parameter List :
Instrument                        Cary 50
Instrument Version                3.00
Start (nm)                        800.0
Stop (nm)                         200.0
X Mode                            Nanometers
Y Mode                            Abs
UV-Vis Scan Rate (nm/min)         300.00
UV-Vis Data Interval (nm)         0.50
UV-Vis Ave. Time (sec)            0.1000
Beam Mode                         Dual Beam
Baseline Correction               Off
Cycle Mode                        Off
Comments
Method Log     :
Method Name    :
Date/Time stamp: 4/20/2024 5:05:46 PM
Method Modifications:
UVVIS SAT Changed: 4/26/2024 1:57:00 PM, Old:0.0125, New:0.1000
Common SAT Changed: 4/26/2024 1:57:00 PM, Old:0.0125, New:0.1000
Common Interval nm Changed: 4/26/2024 1:57:01 PM, Old:     5.00, New:     0.50
End Method Modifications
<Current Wavelength> , 200.5

is_2_5_250uM1,
is_2_5_250uM1
Collection Time: 4/26/2024 2:17:28 PM
Operator Name  :
Scan Software Version: 3.00(339)
Parameter List :
Instrument                        Cary 50
Instrument Version                3.00
Start (nm)                        800.0
Stop (nm)                         200.0
X Mode                            Nanometers
Y Mode                            Abs
UV-Vis Scan Rate (nm/min)         300.00
UV-Vis Data Interval (nm)         0.50
UV-Vis Ave. Time (sec)            0.1000
Beam Mode                         Dual Beam
Baseline Correction               Off
Cycle Mode                        Off
Comments
Method Log     :
Method Name    :
Date/Time stamp: 4/20/2024 5:05:46 PM
Method Modifications:
UVVIS SAT Changed: 4/26/2024 1:57:00 PM, Old:0.0125, New:0.1000
Common SAT Changed: 4/26/2024 1:57:00 PM, Old:0.0125, New:0.1000
Common Interval nm Changed: 4/26/2024 1:57:01 PM, Old:     5.00, New:     0.50
End Method Modifications
<Current Wavelength> , 200.5