File: silicates_UV_vis/Allylsilicates_plot/is_2_9_allyl_methylcatechol.csv
is_2_9_7uM,,is_2_9_15uM1,,is_2_9_31uM2,,is_2_9_15uM,,is_2_9_31uM,,is_2_9_62uM,,is_2_9_125uM,,is_2_9_250uM,,
Wavelength (nm),Abs,Wavelength (nm),Abs,Wavelength (nm),Abs,Wavelength (nm),Abs,Wavelength (nm),Abs,Wavelength (nm),Abs,Wavelength (nm),Abs,Wavelength (nm),Abs,
799.953,-0.000807667,799.953,-0.000320454,799.953,0.000159331,799.953,0.00199578,799.953,0.00539419,799.953,0.00140072,799.953,0.00165569,799.953,0.00185987,
791.057,-0.00139926,791.057,-0.000607998,791.057,-0.000950837,791.057,0.0011798,791.057,0.0024527,791.057,0.00111331,791.057,0.000331881,791.057,0.00170293,
781.989,-0.00203246,781.989,-0.00173235,781.989,-0.00173513,781.989,-0.000213869,781.989,0.000485245,781.989,-0.000344975,781.989,-0.00017366,781.989,0.000961381,
773.03,-0.00281548,773.03,-0.00236676,773.03,-0.00233299,773.03,-0.000504173,773.03,-0.000156427,773.03,-0.000634829,773.03,-0.000832006,773.03,8.91345e-05,
764.04,-0.00400324,764.04,-0.00373724,764.04,-0.00376454,764.04,-0.00162786,764.04,-0.00174751,764.04,-0.00171105,764.04,-0.00197124,764.04,-0.00121329,
755.02,-0.00552537,755.02,-0.00533962,755.02,-0.00527799,755.02,-0.00302267,755.02,-0.00334157,755.02,-0.00327945,755.02,-0.00390828,755.02,-0.00242984,
745.971,-0.00751673,745.971,-0.0068261,745.971,-0.00718479,745.971,-0.00512867,745.971,-0.00447092,745.971,-0.00479331,745.971,-0.00507065,745.971,-0.00446359,
737.034,-0.0097333,737.034,-0.009827,737.034,-0.00968399,737.034,-0.00788177,737.034,-0.00753057,737.034,-0.00734165,737.034,-0.0080121,737.034,-0.00684312,
728.068,-0.0116686,728.068,-0.0113413,728.068,-0.0112358,728.068,-0.0091486,728.068,-0.0091887,728.068,-0.00899969,728.068,-0.00969579,728.068,-0.00824513,
718.932,-0.0155622,718.932,-0.0153545,718.932,-0.0152152,718.932,-0.0129852,718.932,-0.0130527,718.932,-0.012982,718.932,-0.0136701,718.932,-0.0119877,
710.055,-0.011631,710.055,-0.010832,710.055,-0.0108167,710.055,-0.00890581,710.055,-0.00871445,710.055,-0.00857484,710.055,-0.00920405,710.055,-0.00788156,
701.007,0.000227286,701.007,0.000403465,701.007,0.000645558,701.007,0.00249255,701.007,0.00265767,701.007,0.00283015,701.007,0.00246449,701.007,0.00352437,
691.933,0.010218,691.933,0.0103293,691.933,0.0103604,691.933,0.0129225,691.933,0.0130897,691.933,0.0130451,691.933,0.0124083,691.933,0.0140111,
682.976,0.0156974,682.976,0.0158463,682.976,0.0162535,682.976,0.0182483,682.976,0.0183713,682.976,0.0182256,682.976,0.0175193,682.976,0.0196183,
673.995,0.0178576,673.995,0.0179866,673.995,0.0183144,673.995,0.0206847,673.995,0.0205054,673.995,0.0207942,673.995,0.0199506,673.995,0.0215414,
664.988,0.0166669,664.988,0.0168098,664.988,0.0166226,664.988,0.0192179,664.988,0.0191882,664.988,0.0195506,664.988,0.0187503,664.988,0.0204914,
655.957,0.0153385,655.957,0.0157385,655.957,0.0158559,655.957,0.0181207,655.957,0.0183829,655.957,0.0182924,655.957,0.0178818,655.957,0.019577,
647.048,0.0153816,647.048,0.0156812,647.048,0.0161234,647.048,0.0179559,647.048,0.0185254,647.048,0.0180686,647.048,0.0177471,647.048,0.019436,
637.969,0.0152616,637.969,0.0157009,637.969,0.0157572,637.969,0.0179906,637.969,0.0183239,637.969,0.0184539,637.969,0.0178308,637.969,0.0200642,
629.013,0.0152313,629.013,0.0155636,629.013,0.0158881,629.013,0.018289,629.013,0.0184907,629.013,0.0182006,629.013,0.0178317,629.013,0.0195964,
620.035,0.0154043,620.035,0.0156966,620.035,0.0159349,620.035,0.0185123,620.035,0.0188599,620.035,0.0186217,620.035,0.0181428,620.035,0.0201395,
611.035,0.0146697,611.035,0.0151506,611.035,0.0153876,611.035,0.0182842,611.035,0.0181378,611.035,0.0180993,611.035,0.017588,611.035,0.0197834,
602.013,0.0143044,602.013,0.0147143,602.013,0.0147733,602.013,0.0182618,602.013,0.0177182,602.013,0.0179876,602.013,0.0175864,602.013,0.0191467,
592.969,0.0136972,592.969,0.0139464,592.969,0.0143891,592.969,0.017461,592.969,0.0173371,592.969,0.0173811,592.969,0.0170017,592.969,0.0188224,
584.052,0.0127399,584.052,0.0133496,584.052,0.0133426,584.052,0.0167358,584.052,0.016322,584.052,0.0165378,584.052,0.0165503,584.052,0.0180627,
574.967,0.0114012,574.967,0.0116463,574.967,0.0119324,574.967,0.0155397,574.967,0.0149612,574.967,0.0152731,574.967,0.0160899,574.967,0.0170192,
566.01,0.00936793,566.01,0.00985402,566.01,0.0100783,566.01,0.0135278,566.01,0.0130989,566.01,0.0132491,566.01,0.0134907,566.01,0.0149729,
557.033,0.0069654,557.033,0.00712516,557.033,0.00734335,557.033,0.0113119,557.033,0.0108064,557.033,0.0108946,557.033,0.0104927,557.033,0.0128138,
548.038,0.00411023,548.038,0.0043221,548.038,0.00465377,548.038,0.00848412,548.038,0.00807624,548.038,0.00810417,548.038,0.00779023,548.038,0.0102512,
539.023,0.0030912,539.023,0.00372035,539.023,0.00380952,539.023,0.00766994,539.023,0.0071656,539.023,0.00742029,539.023,0.00698984,539.023,0.00939777,
529.989,0.00690233,529.989,0.00694341,529.989,0.00737987,529.989,0.0113576,529.989,0.0109695,529.989,0.0111563,529.989,0.0109614,529.989,0.0136321,
520.937,0.0143242,520.937,0.0147865,520.937,0.0151027,520.937,0.0191914,520.937,0.0187762,520.937,0.0188764,520.937,0.0185966,520.937,0.0213072,
512.019,0.0213674,512.019,0.0217136,512.019,0.0220034,512.019,0.026485,512.019,0.025942,512.019,0.0263396,512.019,0.0259965,512.019,0.0286926,
502.931,0.0252712,502.931,0.0255604,502.931,0.0259364,502.931,0.0302815,502.931,0.0299466,502.931,0.0299716,502.931,0.0299139,502.931,0.0326415,
493.978,0.0253016,493.978,0.0256825,493.978,0.0258626,493.978,0.0305428,493.978,0.0300861,493.978,0.0302966,493.978,0.0301126,493.978,0.0330066,
485.009,0.0231649,485.009,0.0233745,485.009,0.0239152,485.009,0.0284648,485.009,0.0279509,485.009,0.0283213,485.009,0.0282548,485.009,0.0315136,
476.023,0.0220339,476.023,0.022022,476.023,0.0224833,476.023,0.0271717,476.023,0.026723,476.023,0.0273343,476.023,0.0273176,476.023,0.0303947,
467.021,0.0271237,467.021,0.0272197,467.021,0.0277848,467.021,0.0325976,467.021,0.0324684,467.021,0.0329651,467.021,0.032629,467.021,0.0364561,
458.004,0.0334823,458.004,0.0341691,458.004,0.0344485,458.004,0.0391032,458.004,0.0392543,458.004,0.039512,458.004,0.0396719,458.004,0.0434464,
448.971,0.0366574,448.971,0.0370708,448.971,0.0374208,448.971,0.042216,448.971,0.0425051,448.971,0.0427175,448.971,0.042969,448.971,0.0466908,
439.923,0.0376787,439.923,0.0381924,439.923,0.0384312,439.923,0.043494,439.923,0.0440086,439.923,0.0441481,439.923,0.0444487,439.923,0.0481593,
431.015,0.0368702,431.015,0.0371907,431.015,0.0377064,431.015,0.0425574,431.015,0.042937,431.015,0.0434389,431.015,0.0437952,431.015,0.0477358,
421.938,0.0359088,421.938,0.0363855,421.938,0.0368789,421.938,0.0419633,421.938,0.042361,421.938,0.0427376,421.938,0.0431015,421.938,0.0476293,
413.001,0.034194,413.001,0.0346166,413.001,0.0352803,413.001,0.0404654,413.001,0.0412207,413.001,0.0415076,413.001,0.0420923,413.001,0.0460889,
404.051,0.0317194,404.051,0.0320766,404.051,0.032742,404.051,0.0382957,404.051,0.0386868,404.051,0.0390525,404.051,0.0397182,404.051,0.0441707,
394.933,0.0292427,394.933,0.0296103,394.933,0.03063,394.933,0.036128,394.933,0.0364629,394.933,0.036937,394.933,0.0371786,394.933,0.0418009,
385.957,0.0290743,385.957,0.029415,385.957,0.0304142,385.957,0.0363117,385.957,0.0368702,385.957,0.0371488,385.957,0.037591,385.957,0.0420844,
376.968,0.0330113,376.968,0.0334984,376.968,0.0341738,376.968,0.0405381,376.968,0.0408628,376.968,0.0412775,376.968,0.0417288,376.968,0.0461207,
367.968,0.0384375,367.968,0.0392944,367.968,0.0399775,367.968,0.0467327,367.968,0.0468175,367.968,0.0471622,367.968,0.0479541,367.968,0.0527621,
358.955,0.0424187,358.955,0.0432661,358.955,0.0437084,358.955,0.0508836,358.955,0.0513763,358.955,0.0516451,358.955,0.05261,358.955,0.0577451,
349.93,0.0439664,349.93,0.0451616,349.93,0.0453438,349.93,0.0531471,349.93,0.053556,349.93,0.0538618,349.93,0.055107,349.93,0.0605811,
341.05,0.0441154,341.05,0.0453702,341.05,0.0453265,341.05,0.0537365,341.05,0.0533988,341.05,0.0542665,341.05,0.0560084,341.05,0.0619069,
332.004,0.0429676,332.004,0.0441977,332.004,0.0439778,332.004,0.0531257,332.004,0.0524917,332.004,0.0535634,332.004,0.0559896,332.004,0.0625572,
322.946,0.0434184,322.946,0.0440297,322.946,0.0439057,322.946,0.0532842,322.946,0.0526776,322.946,0.054235,322.946,0.0575965,322.946,0.0659458,
314.035,0.0521121,314.035,0.0485154,314.035,0.0515395,314.035,0.058331,314.035,0.0599838,314.035,0.0664892,314.035,0.0806447,314.035,0.106161,
304.957,0.107094,304.957,0.121854,304.957,0.190329,304.957,0.136112,304.957,0.195666,304.957,0.318394,304.957,0.574691,304.957,0.962051,
296.026,0.200648,296.026,0.263685,296.026,0.461701,296.026,0.284412,296.026,0.468016,296.026,0.842695,296.026,1.61073,296.026,2.69456,
286.929,0.211967,286.929,0.245199,286.929,0.423105,286.929,0.267543,286.929,0.433426,286.929,0.781595,286.929,1.48703,286.929,2.55413,
277.98,0.181399,277.98,0.163237,277.98,0.262909,277.98,0.182324,277.98,0.275807,277.98,0.479375,277.98,0.898284,277.98,1.56445,
269.022,0.145664,269.022,0.0985794,269.022,0.139978,269.022,0.115067,269.022,0.153563,269.022,0.247616,269.022,0.439035,269.022,0.747832,
260.055,0.11422,260.055,0.0713651,260.055,0.0923937,260.055,0.0872007,260.055,0.106093,260.055,0.159957,260.055,0.271489,260.055,0.453225,
250.923,0.106249,250.923,0.103067,250.923,0.144557,250.923,0.120732,250.923,0.158028,250.923,0.261162,250.923,0.474271,250.923,0.809934,
241.989,0.131959,241.989,0.194649,241.989,0.278632,241.989,0.2174,241.989,0.29456,241.989,0.521318,241.989,0.985515,241.989,1.71182,
233.052,0.174484,233.052,0.302669,233.052,0.401695,233.052,0.330474,233.052,0.421818,233.052,0.756444,233.052,1.44331,233.052,2.42865,
223.952,0.242572,223.952,0.436664,223.952,0.595506,223.952,0.470939,223.952,0.620384,223.952,1.11683,223.952,2.10465,223.952,3.10046,
215.001,0.506913,215.001,0.925617,215.001,1.51027,215.001,0.987411,215.001,1.53022,215.001,2.57176,215.001,3.11623,215.001,3.25592,
206.043,1.01007,206.043,1.85616,206.043,2.82881,206.043,1.96664,206.043,2.80826,206.043,3.12033,206.043,3.20488,206.043,3.18057,
200.068,1.03966,200.068,1.84216,200.068,2.62304,200.068,1.96068,200.068,2.66809,200.068,3.01273,200.068,3.11416,200.068,3.16683,

is_2_9_7uM,
is_2_9_7uM
Collection Time: 4/26/2024 12:48:03 PM
Operator Name  :
Scan Software Version: 3.00(339)
Parameter List :
Instrument                        Cary 50
Instrument Version                3.00
Start (nm)                        800.0
Stop (nm)                         200.0
X Mode                            Nanometers
Y Mode                            Abs
UV-Vis Scan Rate (nm/min)         300.00
UV-Vis Data Interval (nm)         0.50
UV-Vis Ave. Time (sec)            0.1000
Beam Mode                         Dual Beam
Baseline Correction               Off
Cycle Mode                        Off
Comments
Method Log     :
Method Name    :
Date/Time stamp: 4/20/2024 5:05:46 PM
Method Modifications:
UVVIS SAT Changed: 4/26/2024 12:45:06 PM, Old:0.0125, New:0.1000
Common SAT Changed: 4/26/2024 12:45:06 PM, Old:0.0125, New:0.1000
Common Interval nm Changed: 4/26/2024 12:45:07 PM, Old:     5.00, New:     0.50
End Method Modifications
<Current Wavelength> , 200.5

is_2_9_15uM1,
is_2_9_15uM1
Collection Time: 4/26/2024 12:51:53 PM
Operator Name  :
Scan Software Version: 3.00(339)
Parameter List :
Instrument                        Cary 50
Instrument Version                3.00
Start (nm)                        800.0
Stop (nm)                         200.0
X Mode                            Nanometers
Y Mode                            Abs
UV-Vis Scan Rate (nm/min)         300.00
UV-Vis Data Interval (nm)         0.50
UV-Vis Ave. Time (sec)            0.1000
Beam Mode                         Dual Beam
Baseline Correction               Off
Cycle Mode                        Off
Comments
Method Log     :
Method Name    :
Date/Time stamp: 4/20/2024 5:05:46 PM
Method Modifications:
UVVIS SAT Changed: 4/26/2024 12:45:06 PM, Old:0.0125, New:0.1000
Common SAT Changed: 4/26/2024 12:45:06 PM, Old:0.0125, New:0.1000
Common Interval nm Changed: 4/26/2024 12:45:07 PM, Old:     5.00, New:     0.50
End Method Modifications
<Current Wavelength> , 200.5

is_2_9_31uM2,
is_2_9_31uM2
Collection Time: 4/26/2024 12:55:03 PM
Operator Name  :
Scan Software Version: 3.00(339)
Parameter List :
Instrument                        Cary 50
Instrument Version                3.00
Start (nm)                        800.0
Stop (nm)                         200.0
X Mode                            Nanometers
Y Mode                            Abs
UV-Vis Scan Rate (nm/min)         300.00
UV-Vis Data Interval (nm)         0.50
UV-Vis Ave. Time (sec)            0.1000
Beam Mode                         Dual Beam
Baseline Correction               Off
Cycle Mode                        Off
Comments
Method Log     :
Method Name    :
Date/Time stamp: 4/20/2024 5:05:46 PM
Method Modifications:
UVVIS SAT Changed: 4/26/2024 12:45:06 PM, Old:0.0125, New:0.1000
Common SAT Changed: 4/26/2024 12:45:06 PM, Old:0.0125, New:0.1000
Common Interval nm Changed: 4/26/2024 12:45:07 PM, Old:     5.00, New:     0.50
End Method Modifications
<Current Wavelength> , 200.5

is_2_9_15uM,
is_2_9_15uM
Collection Time: 4/26/2024 1:00:44 PM
Operator Name  :
Scan Software Version: 3.00(339)
Parameter List :
Instrument                        Cary 50
Instrument Version                3.00
Start (nm)                        800.0
Stop (nm)                         200.0
X Mode                            Nanometers
Y Mode                            Abs
UV-Vis Scan Rate (nm/min)         300.00
UV-Vis Data Interval (nm)         0.50
UV-Vis Ave. Time (sec)            0.1000
Beam Mode                         Dual Beam
Baseline Correction               Off
Cycle Mode                        Off
Comments
Method Log     :
Method Name    :
Date/Time stamp: 4/20/2024 5:05:46 PM
Method Modifications:
UVVIS SAT Changed: 4/26/2024 12:45:06 PM, Old:0.0125, New:0.1000
Common SAT Changed: 4/26/2024 12:45:06 PM, Old:0.0125, New:0.1000
Common Interval nm Changed: 4/26/2024 12:45:07 PM, Old:     5.00, New:     0.50
End Method Modifications
<Current Wavelength> , 200.5

is_2_9_31uM,
is_2_9_31uM
Collection Time: 4/26/2024 1:11:44 PM
Operator Name  :
Scan Software Version: 3.00(339)
Parameter List :
Instrument                        Cary 50
Instrument Version                3.00
Start (nm)                        800.0
Stop (nm)                         200.0
X Mode                            Nanometers
Y Mode                            Abs
UV-Vis Scan Rate (nm/min)         300.00
UV-Vis Data Interval (nm)         0.50
UV-Vis Ave. Time (sec)            0.1000
Beam Mode                         Dual Beam
Baseline Correction               Off
Cycle Mode                        Off
Comments
Method Log     :
Method Name    :
Date/Time stamp: 4/20/2024 5:05:46 PM
Method Modifications:
UVVIS SAT Changed: 4/26/2024 12:45:06 PM, Old:0.0125, New:0.1000
Common SAT Changed: 4/26/2024 12:45:06 PM, Old:0.0125, New:0.1000
Common Interval nm Changed: 4/26/2024 12:45:07 PM, Old:     5.00, New:     0.50
End Method Modifications
<Current Wavelength> , 200.5

is_2_9_62uM,
is_2_9_62uM
Collection Time: 4/26/2024 1:18:35 PM
Operator Name  :
Scan Software Version: 3.00(339)
Parameter List :
Instrument                        Cary 50
Instrument Version                3.00
Start (nm)                        800.0
Stop (nm)                         200.0
X Mode                            Nanometers
Y Mode                            Abs
UV-Vis Scan Rate (nm/min)         300.00
UV-Vis Data Interval (nm)         0.50
UV-Vis Ave. Time (sec)            0.1000
Beam Mode                         Dual Beam
Baseline Correction               Off
Cycle Mode                        Off
Comments
Method Log     :
Method Name    :
Date/Time stamp: 4/20/2024 5:05:46 PM
Method Modifications:
UVVIS SAT Changed: 4/26/2024 12:45:06 PM, Old:0.0125, New:0.1000
Common SAT Changed: 4/26/2024 12:45:06 PM, Old:0.0125, New:0.1000
Common Interval nm Changed: 4/26/2024 12:45:07 PM, Old:     5.00, New:     0.50
End Method Modifications
<Current Wavelength> , 200.5

is_2_9_125uM,
is_2_9_125uM
Collection Time: 4/26/2024 1:21:57 PM
Operator Name  :
Scan Software Version: 3.00(339)
Parameter List :
Instrument                        Cary 50
Instrument Version                3.00
Start (nm)                        800.0
Stop (nm)                         200.0
X Mode                            Nanometers
Y Mode                            Abs
UV-Vis Scan Rate (nm/min)         300.00
UV-Vis Data Interval (nm)         0.50
UV-Vis Ave. Time (sec)            0.1000
Beam Mode                         Dual Beam
Baseline Correction               Off
Cycle Mode                        Off
Comments
Method Log     :
Method Name    :
Date/Time stamp: 4/20/2024 5:05:46 PM
Method Modifications:
UVVIS SAT Changed: 4/26/2024 12:45:06 PM, Old:0.0125, New:0.1000
Common SAT Changed: 4/26/2024 12:45:06 PM, Old:0.0125, New:0.1000
Common Interval nm Changed: 4/26/2024 12:45:07 PM, Old:     5.00, New:     0.50
End Method Modifications
<Current Wavelength> , 200.5

is_2_9_250uM,
is_2_9_250uM
Collection Time: 4/26/2024 1:27:57 PM
Operator Name  :
Scan Software Version: 3.00(339)
Parameter List :
Instrument                        Cary 50
Instrument Version                3.00
Start (nm)                        800.0
Stop (nm)                         200.0
X Mode                            Nanometers
Y Mode                            Abs
UV-Vis Scan Rate (nm/min)         300.00
UV-Vis Data Interval (nm)         0.50
UV-Vis Ave. Time (sec)            0.1000
Beam Mode                         Dual Beam
Baseline Correction               Off
Cycle Mode                        Off
Comments
Method Log     :
Method Name    :
Date/Time stamp: 4/20/2024 5:05:46 PM
Method Modifications:
UVVIS SAT Changed: 4/26/2024 12:45:06 PM, Old:0.0125, New:0.1000
Common SAT Changed: 4/26/2024 12:45:06 PM, Old:0.0125, New:0.1000
Common Interval nm Changed: 4/26/2024 12:45:07 PM, Old:     5.00, New:     0.50
End Method Modifications
<Current Wavelength> , 200.5