File: silicates_UV_vis/Allylsilicates_plot/is_2_11_allyl_phenylcoumarine.csv
is_2_11_7uM,,is_2_11_15uM1,,is_2_11_31uM,,is_2_11_62uM,,is_2_11_125uM,,is_2_11_250uM,,
Wavelength (nm),Abs,Wavelength (nm),Abs,Wavelength (nm),Abs,Wavelength (nm),Abs,Wavelength (nm),Abs,Wavelength (nm),Abs,
799.953,-0.000571703,799.953,0.000853807,799.953,0.0010176,799.953,0.00355942,799.953,0.00600472,799.953,0.0138416,
793.562,-0.000144575,793.562,0.000615538,793.562,0.000890302,793.562,0.00324144,793.562,0.00698342,793.562,0.0141478,
787.015,-0.00109938,787.015,-0.000237568,787.015,0.000227856,787.015,0.00177144,787.015,0.0045778,787.015,0.0140591,
780.451,-0.0012947,780.451,-0.000453286,780.451,-0.00106587,780.451,0.00217952,780.451,0.00500144,780.451,0.0144981,
774.011,-0.00175349,774.011,-0.00100404,774.011,-0.00117632,774.011,0.0015091,774.011,0.00453903,774.011,0.0150566,
767.555,-0.00291968,767.555,-0.00251462,767.555,-0.00120823,767.555,0.00119595,767.555,0.00397062,767.555,0.0147924,
760.943,-0.00380468,760.943,-0.0027556,760.943,-0.00233072,760.943,0.000343461,760.943,0.00344377,760.943,0.0135874,
754.455,-0.00472336,754.455,-0.00411721,754.455,-0.00329512,754.455,-0.000633744,754.455,0.00220564,754.455,0.0122892,
747.953,-0.00580668,747.953,-0.00505729,747.953,-0.00463163,747.953,-0.00225749,747.953,0.00112574,747.953,0.0104,
741.435,-0.00729523,741.435,-0.00739464,741.435,-0.00676483,741.435,-0.00452328,741.435,-0.00079356,741.435,0.00837614,
735.044,-0.00865082,735.044,-0.00794099,735.044,-0.00735881,735.044,-0.00539224,735.044,-0.00173684,735.044,0.00722658,
728.496,-0.0105227,728.496,-0.00968075,728.496,-0.00876342,728.496,-0.00679577,728.496,-0.00355688,728.496,0.00539149,
721.933,-0.0141677,721.933,-0.0131711,721.933,-0.0127093,721.933,-0.0104752,721.933,-0.00734756,721.933,0.00119428,
715.499,-0.0141561,715.499,-0.0133791,715.499,-0.0124499,715.499,-0.0101559,715.499,-0.00753026,715.499,0.000869914,
709.051,-0.0095614,709.051,-0.00862803,709.051,-0.00770236,709.051,-0.00514801,709.051,-0.00277896,709.051,0.00656826,
702.445,-0.00139575,702.445,-0.000309486,702.445,0.000909108,702.445,0.00292985,702.445,0.00596837,702.445,0.0159048,
695.969,0.00754868,695.969,0.00863368,695.969,0.00952198,695.969,0.0121952,695.969,0.0153989,695.969,0.0255378,
689.479,0.0131073,689.479,0.0137955,689.479,0.0147834,689.479,0.0175744,689.479,0.0216274,689.479,0.0306437,
682.976,0.0167917,682.976,0.0172428,682.976,0.0184033,682.976,0.0205577,682.976,0.0246528,682.976,0.0338159,
676.46,0.0186066,676.46,0.0191556,676.46,0.0201676,676.46,0.0223086,676.46,0.026729,676.46,0.0359917,
669.931,0.0197569,669.931,0.0207957,669.931,0.0220372,669.931,0.0239547,669.931,0.0285369,669.931,0.0365294,
663.533,0.0169788,663.533,0.0178752,663.533,0.0191488,663.533,0.0213621,663.533,0.025528,663.533,0.0336983,
656.978,0.016399,656.978,0.0171511,656.978,0.0181187,656.978,0.0210997,656.978,0.0250104,656.978,0.0336967,
650.556,0.0164124,650.556,0.0174696,650.556,0.0181386,650.556,0.0206307,650.556,0.0248393,650.556,0.0346249,
643.976,0.0169101,643.976,0.0177773,643.976,0.0188127,643.976,0.0212071,643.976,0.0252868,643.976,0.0358253,
637.529,0.0160884,637.529,0.017438,637.529,0.0186965,637.529,0.0203738,637.529,0.0249793,637.529,0.0361963,
631.071,0.0163459,631.071,0.0174607,631.071,0.0186078,631.071,0.0205932,631.071,0.0251383,631.071,0.0376462,
624.454,0.0166954,624.454,0.0177059,624.454,0.0188334,624.454,0.0209187,624.454,0.025244,624.454,0.037624,
617.972,0.0162099,617.972,0.0176083,617.972,0.0186415,617.972,0.0206244,617.972,0.0249263,617.972,0.0367636,
611.478,0.0158987,611.478,0.0172475,611.478,0.0179768,611.478,0.0205985,611.478,0.0246352,611.478,0.0359381,
604.973,0.0158992,604.973,0.0168128,604.973,0.0178847,604.973,0.0206951,604.973,0.0247705,604.973,0.0352757,
598.457,0.015292,598.457,0.016452,598.457,0.0175353,598.457,0.0203501,598.457,0.024235,598.457,0.0342831,
591.93,0.0147064,591.93,0.0160085,591.93,0.0171682,591.93,0.0199094,591.93,0.0242734,591.93,0.0345071,
585.54,0.0142202,585.54,0.0153905,585.54,0.0166863,585.54,0.0192473,585.54,0.0240158,585.54,0.0353174,
578.991,0.0136456,578.991,0.0145419,578.991,0.0157787,578.991,0.018552,578.991,0.023353,578.991,0.0351433,
572.431,0.0121475,572.431,0.0132931,572.431,0.0143103,572.431,0.0174219,572.431,0.0229362,572.431,0.0338168,
566.01,0.0106992,566.01,0.0119795,566.01,0.0127631,566.01,0.0159646,566.01,0.0220472,566.01,0.0326155,
559.429,0.00883861,559.429,0.0101656,559.429,0.0110362,559.429,0.0141356,559.429,0.0206027,559.429,0.0314651,
552.988,0.00715984,552.988,0.00824387,552.988,0.00933537,552.988,0.0129748,552.988,0.0187263,552.988,0.0298466,
546.536,0.00515764,546.536,0.0063199,546.536,0.00765547,546.536,0.0116083,546.536,0.0170175,546.536,0.0274742,
539.925,0.00457087,539.925,0.00579037,539.925,0.00731329,539.925,0.0118227,539.925,0.0166523,539.925,0.0264939,
533.454,0.00618174,533.454,0.00753148,533.454,0.00916798,533.454,0.0134043,533.454,0.0183722,533.454,0.0284948,
526.974,0.0103453,526.974,0.0117115,526.974,0.0134836,526.974,0.0176178,526.974,0.0226606,526.974,0.0333085,
520.484,0.0162232,520.484,0.0175887,520.484,0.0197312,520.484,0.0237028,520.484,0.0287724,520.484,0.0396832,
513.985,0.0218052,513.985,0.0229157,513.985,0.0252708,513.985,0.0289558,513.985,0.034927,513.985,0.04605,
507.477,0.0257465,507.477,0.0268148,507.477,0.0287706,507.477,0.0325298,507.477,0.0390078,507.477,0.0505359,
500.96,0.0277139,500.96,0.0284723,500.96,0.0308406,500.96,0.0339366,500.96,0.0407219,500.96,0.0532836,
494.434,0.02772386,494.434,0.0288579,494.434,0.0310207,494.434,0.0343849,494.434,0.0410505,494.434,0.0542972,
488.051,0.0261571,488.051,0.027892,488.051,0.0296781,488.051,0.0335059,488.051,0.040389,488.051,0.055127,
481.508,0.0247113,481.508,0.0265175,481.508,0.0283431,481.508,0.0324203,481.508,0.0405416,481.508,0.0556968,
474.956,0.024671,474.956,0.0267016,474.956,0.0290228,474.956,0.0338555,474.956,0.0429867,474.956,0.0593955,
468.548,0.0289972,468.548,0.0311434,468.548,0.0337983,468.548,0.0395857,468.548,0.0503957,468.548,0.069401,
461.98,0.0353229,461.98,0.0379157,461.98,0.0414651,461.98,0.0484751,461.98,0.0619184,461.98,0.0860352,
455.556,0.0401389,455.556,0.043763,455.556,0.0481582,455.556,0.0566788,455.556,0.0743496,455.556,0.103941,
448.971,0.0433886,448.971,0.048027,448.971,0.0540789,448.971,0.0663241,448.971,0.0894423,448.971,0.126911,
442.532,0.0467974,442.532,0.0522267,442.532,0.0609092,442.532,0.0784166,442.532,0.108993,442.532,0.161323,
435.932,0.0492593,435.932,0.0570581,435.932,0.0691411,435.932,0.0930046,435.932,0.135269,435.932,0.2104,
429.477,0.052457,429.477,0.0628149,429.477,0.0797357,429.477,0.112729,429.477,0.173483,429.477,0.278868,
423.016,0.0563519,423.016,0.070497,423.016,0.0939177,423.016,0.139374,423.016,0.224436,423.016,0.377949,
416.547,0.0611711,416.547,0.0818608,416.547,0.114623,416.547,0.177044,416.547,0.298338,416.547,0.516328,
410.071,0.0672439,410.071,0.0948883,410.071,0.141377,410.071,0.228838,410.071,0.397946,410.071,0.700105,
403.433,0.0757904,403.433,0.113528,403.433,0.17815,403.433,0.299528,403.433,0.536495,403.433,0.952311,
396.943,0.0884023,396.943,0.140851,396.943,0.229761,396.943,0.396791,396.943,0.722552,396.943,1.29395,
390.447,0.106894,390.447,0.17814,390.447,0.298892,390.447,0.528032,390.447,0.96742,390.447,1.73038,
383.944,0.131872,383.944,0.225085,383.944,0.38562,383.944,0.688357,383.944,1.26572,383.944,2.24389,
377.434,0.162358,377.434,0.280735,377.434,0.484958,377.434,0.869074,377.434,1.59813,377.434,2.76254,
371.073,0.195392,371.073,0.343681,371.073,0.597444,371.073,1.07304,371.073,1.95129,371.073,3.58076,
364.55,0.234581,364.55,0.416373,364.55,0.724951,364.55,1.30306,364.55,2.34244,364.55,3.45739,
358.022,0.275092,358.022,0.492755,358.022,0.86467,358.022,1.55791,358.022,2.80544,358.022,4.04234,
351.487,0.32078,351.487,0.581437,351.487,1.02749,351.487,1.8411,351.487,3.07816,351.487,10,
344.946,0.364448,344.946,0.666496,344.946,1.18346,344.946,2.12765,344.946,3.56801,344.946,4.09686,
338.556,0.391885,338.556,0.720522,338.556,1.28215,338.556,2.33282,338.556,3.34458,338.556,3.56663,
332.004,0.40262,332.004,0.742552,332.004,1.32864,332.004,2.39245,332.004,3.20301,332.004,3.47002,
325.446,0.390627,325.446,0.720093,325.446,1.29025,325.446,2.33336,325.446,3.63244,325.446,3.56449,
319.039,0.359011,319.039,0.657288,319.039,1.17695,319.039,2.13861,319.039,3.407,319.039,3.71541,
312.471,0.313696,312.471,0.569398,312.471,1.01276,312.471,1.83219,312.471,3.09179,312.471,3.75213,
306.053,0.262992,306.053,0.469599,306.053,0.825813,306.053,1.49142,306.053,2.66762,306.053,3.4795,
299.474,0.220284,299.474,0.384664,299.474,0.669308,299.474,1.20175,299.474,2.17981,299.474,3.43536,
293.047,0.217172,293.047,0.371817,293.047,0.639625,293.047,1.1366,293.047,2.04603,293.047,3.35731,
286.458,0.263412,286.458,0.462,286.458,0.805779,286.458,1.44893,286.458,2.60164,286.458,3.5846,
280.022,0.379828,280.022,0.693837,280.022,1.22894,280.022,2.20288,280.022,3.32855,280.022,3.61755,
273.423,0.52051,273.423,0.968855,273.423,1.73203,273.423,3.0035,273.423,3.67444,273.423,3.51576,
266.978,0.559902,266.978,1.04822,266.978,1.88044,266.978,3.16869,266.978,3.6746,266.978,3.53591,
260.527,0.575802,260.527,1.08421,260.527,1.95,260.527,3.17557,260.527,3.51891,260.527,3.55735,
254.073,0.542203,254.073,1.0211,254.073,1.83881,254.073,3.17148,254.073,3.48004,254.073,3.52613,
247.472,0.482689,247.472,0.904148,247.472,1.63093,247.472,2.89967,247.472,3.62842,247.472,3.68593,
241.048,0.450271,241.048,0.835748,241.048,1.49736,241.048,2.68603,241.048,3.54909,241.048,3.76372,
234.464,0.563315,234.464,1.05189,234.464,1.88313,234.464,3.21491,234.464,3.57416,234.464,3.58193,
228.032,0.850872,228.032,1.60287,228.032,2.79267,228.032,3.5188,228.032,3.51822,228.032,3.56071,
221.44,1.16865,221.44,2.16642,221.44,2.99004,221.44,3.32134,221.44,3.38433,221.44,3.4335,
215.001,1.39997,215.001,2.54221,215.001,3.34745,215.001,3.33313,215.001,3.37021,215.001,3.59331,
208.558,1.6471,208.558,2.84369,208.558,3.32039,208.558,3.31337,208.558,3.45352,208.558,3.47538,
201.955,1.59113,201.955,2.73518,201.955,3.16289,201.955,3.272,201.955,3.08792,201.955,3.40096,
200.068,1.56841,200.068,2.65833,200.068,3.23104,200.068,3.324754,200.068,3.23488,200.068,3.39819,

is_2_11_7uM,
is_2_11_7uM
Collection Time: 4/29/2024 9:42:58 AM
Operator Name  :
Scan Software Version: 3.00(339)
Parameter List :
Instrument                        Cary 50
Instrument Version                3.00
Start (nm)                        800.0
Stop (nm)                         200.0
X Mode                            Nanometers
Y Mode                            Abs
UV-Vis Scan Rate (nm/min)         300.00
UV-Vis Data Interval (nm)         0.50
UV-Vis Ave. Time (sec)            0.1000
Beam Mode                         Dual Beam
Baseline Correction               Off
Cycle Mode                        Off
Comments
Method Log     :
Method Name    :
Date/Time stamp: 4/20/2024 5:05:46 PM
Method Modifications:
UVVIS SAT Changed: 4/29/2024 9:41:25 AM, Old:0.0125, New:0.1000
Common SAT Changed: 4/29/2024 9:41:25 AM, Old:0.0125, New:0.1000
Common Interval nm Changed: 4/29/2024 9:41:27 AM, Old:     5.00, New:     0.50
End Method Modifications
<Current Wavelength> , 200.5

is_2_11_15uM1,
is_2_11_15uM1
Collection Time: 4/29/2024 9:56:31 AM
Operator Name  :
Scan Software Version: 3.00(339)
Parameter List :
Instrument                        Cary 50
Instrument Version                3.00
Start (nm)                        800.0
Stop (nm)                         200.0
X Mode                            Nanometers
Y Mode                            Abs
UV-Vis Scan Rate (nm/min)         300.00
UV-Vis Data Interval (nm)         0.50
UV-Vis Ave. Time (sec)            0.1000
Beam Mode                         Dual Beam
Baseline Correction               Off
Cycle Mode                        Off
Comments
Method Log     :
Method Name    :
Date/Time stamp: 4/20/2024 5:05:46 PM
Method Modifications:
UVVIS SAT Changed: 4/29/2024 9:41:25 AM, Old:0.0125, New:0.1000
Common SAT Changed: 4/29/2024 9:41:25 AM, Old:0.0125, New:0.1000
Common Interval nm Changed: 4/29/2024 9:41:27 AM, Old:     5.00, New:     0.50
End Method Modifications
<Current Wavelength> , 200.5

is_2_11_31uM,
is_2_11_31uM
Collection Time: 4/29/2024 9:59:55 AM
Operator Name  :
Scan Software Version: 3.00(339)
Parameter List :
Instrument                        Cary 50
Instrument Version                3.00
Start (nm)                        800.0
Stop (nm)                         200.0
X Mode                            Nanometers
Y Mode                            Abs
UV-Vis Scan Rate (nm/min)         300.00
UV-Vis Data Interval (nm)         0.50
UV-Vis Ave. Time (sec)            0.1000
Beam Mode                         Dual Beam
Baseline Correction               Off
Cycle Mode                        Off
Comments
Method Log     :
Method Name    :
Date/Time stamp: 4/20/2024 5:05:46 PM
Method Modifications:
UVVIS SAT Changed: 4/29/2024 9:41:25 AM, Old:0.0125, New:0.1000
Common SAT Changed: 4/29/2024 9:41:25 AM, Old:0.0125, New:0.1000
Common Interval nm Changed: 4/29/2024 9:41:27 AM, Old:     5.00, New:     0.50
End Method Modifications
<Current Wavelength> , 200.5

is_2_11_62uM,
is_2_11_62uM
Collection Time: 4/29/2024 10:03:02 AM
Operator Name  :
Scan Software Version: 3.00(339)
Parameter List :
Instrument                        Cary 50
Instrument Version                3.00
Start (nm)                        800.0
Stop (nm)                         200.0
X Mode                            Nanometers
Y Mode                            Abs
UV-Vis Scan Rate (nm/min)         300.00
UV-Vis Data Interval (nm)         0.50
UV-Vis Ave. Time (sec)            0.1000
Beam Mode                         Dual Beam
Baseline Correction               Off
Cycle Mode                        Off
Comments
Method Log     :
Method Name    :
Date/Time stamp: 4/20/2024 5:05:46 PM
Method Modifications:
UVVIS SAT Changed: 4/29/2024 9:41:25 AM, Old:0.0125, New:0.1000
Common SAT Changed: 4/29/2024 9:41:25 AM, Old:0.0125, New:0.1000
Common Interval nm Changed: 4/29/2024 9:41:27 AM, Old:     5.00, New:     0.50
End Method Modifications
<Current Wavelength> , 200.5

is_2_11_125uM,
is_2_11_125uM
Collection Time: 4/29/2024 10:06:14 AM
Operator Name  :
Scan Software Version: 3.00(339)
Parameter List :
Instrument                        Cary 50
Instrument Version                3.00
Start (nm)                        800.0
Stop (nm)                         200.0
X Mode                            Nanometers
Y Mode                            Abs
UV-Vis Scan Rate (nm/min)         300.00
UV-Vis Data Interval (nm)         0.50
UV-Vis Ave. Time (sec)            0.1000
Beam Mode                         Dual Beam
Baseline Correction               Off
Cycle Mode                        Off
Comments
Method Log     :
Method Name    :
Date/Time stamp: 4/20/2024 5:05:46 PM
Method Modifications:
UVVIS SAT Changed: 4/29/2024 9:41:25 AM, Old:0.0125, New:0.1000
Common SAT Changed: 4/29/2024 9:41:25 AM, Old:0.0125, New:0.1000
Common Interval nm Changed: 4/29/2024 9:41:27 AM, Old:     5.00, New:     0.50
End Method Modifications
<Current Wavelength> , 200.5

is_2_11_250uM,
is_2_11_250uM
Collection Time: 4/29/2024 10:09:10 AM
Operator Name  :
Scan Software Version: 3.00(339)
Parameter List :
Instrument                        Cary 50
Instrument Version                3.00
Start (nm)                        800.0
Stop (nm)                         200.0
X Mode                            Nanometers
Y Mode                            Abs
UV-Vis Scan Rate (nm/min)         300.00
UV-Vis Data Interval (nm)         0.50
UV-Vis Ave. Time (sec)            0.1000
Beam Mode                         Dual Beam
Baseline Correction               Off
Cycle Mode                        Off
Comments
Method Log     :
Method Name    :
Date/Time stamp: 4/20/2024 5:05:46 PM
Method Modifications:
UVVIS SAT Changed: 4/29/2024 9:41:25 AM, Old:0.0125, New:0.1000
Common SAT Changed: 4/29/2024 9:41:25 AM, Old:0.0125, New:0.1000
Common Interval nm Changed: 4/29/2024 9:41:27 AM, Old:     5.00, New:     0.50
End Method Modifications
<Current Wavelength> , 200.5