File: silicates_UV_vis/Allylsilicates_plot/is_2_3_allyl_methoxysilicate.csv
is_2_3_31uM,,is_2_3_15uM,,is_2_3_62uM,,is_2_3_125uM,,is_2_3_250uM1,,
Wavelength (nm),Abs,Wavelength (nm),Abs,Wavelength (nm),Abs,Wavelength (nm),Abs,Wavelength (nm),Abs,
799.953,-0.000748753,799.953,-0.000554434,799.953,-0.00162823,799.953,-0.000842185,799.953,-0.000916844,
794.536,-0.000336439,794.536,-0.00115851,794.536,-0.000955951,794.536,-0.000851176,794.536,-0.00120017,
788.967,-0.0010137,788.967,-0.00196021,788.967,-0.00120012,788.967,-0.00220881,788.967,-0.00172915,
783.526,-0.00187661,783.526,-0.00274511,783.526,-0.00212392,783.526,-0.00250278,783.526,-0.00263124,
777.933,-0.00283626,777.933,-0.0027503,777.933,-0.00319194,777.933,-0.00256156,777.933,-0.00259959,
772.469,-0.00351118,772.469,-0.0033463,772.469,-0.00343578,772.469,-0.00407961,772.469,-0.00355478,
766.993,-0.00342458,766.993,-0.00399201,766.993,-0.00401309,766.993,-0.00419382,766.993,-0.00393942,
761.506,-0.00416367,761.506,-0.00444217,761.506,-0.00456775,761.506,-0.00457272,761.506,-0.00480791,
756.008,-0.00554786,756.008,-0.00559391,756.008,-0.00548427,756.008,-0.00552312,756.008,-0.00595194,
750.499,-0.00644329,750.499,-0.00646976,750.499,-0.00656136,750.499,-0.00669969,750.499,-0.00677054,
744.979,-0.00744655,744.979,-0.00800316,744.979,-0.00801531,744.979,-0.00798913,744.979,-0.00757575,
739.448,-0.00944601,739.448,-0.00966926,739.448,-0.0094877,739.448,-0.00980366,739.448,-0.0098066,
734.048,-0.00948932,734.048,-0.0100171,734.048,-0.00981207,734.048,-0.00981212,734.048,-0.0101367,
728.496,-0.011138,728.496,-0.0114269,728.496,-0.0114726,728.496,-0.0117041,728.496,-0.0117201,
722.933,-0.0146522,722.933,-0.0149381,722.933,-0.0149608,722.933,-0.0150752,722.933,-0.0150591,
717.502,-0.0153716,717.502,-0.0159769,717.502,-0.0158003,717.502,-0.0159348,717.502,-0.015906,
712.062,-0.0133455,712.062,-0.0134347,712.062,-0.0134526,712.062,-0.0136269,712.062,-0.0136114,
706.468,-0.00726315,706.468,-0.00761965,706.468,-0.0074891,706.468,-0.00791313,706.468,-0.00774071,
701.007,0.000133333,701.007,-0.000393754,701.007,-0.000375391,701.007,-0.000311452,701.007,-0.00025128,
695.537,0.00711776,695.537,0.00684721,695.537,0.0071891,695.537,0.00682423,695.537,0.00669705,
690.057,0.011691,690.057,0.0117924,690.057,0.0111895,690.057,0.0112301,690.057,0.0111332,
684.567,0.014727,684.567,0.0145066,684.567,0.0148751,684.567,0.0143046,684.567,0.0144498,
679.068,0.0169204,679.068,0.0166212,679.068,0.0165581,679.068,0.0162689,679.068,0.016371,
673.56,0.0180918,673.56,0.017793,673.56,0.0175822,673.56,0.0172924,673.56,0.0177512,
668.042,0.0181712,668.042,0.0174061,668.042,0.0176493,668.042,0.0174689,668.042,0.0177556,
662.515,0.0158998,662.515,0.0154586,662.515,0.0154917,662.515,0.0153608,662.515,0.0157656,
656.978,0.0154994,656.978,0.0153338,656.978,0.0151019,656.978,0.0148919,656.978,0.015033,
651.433,0.0152539,651.433,0.0148835,651.433,0.0152373,651.433,0.01481,651.433,0.0149011,
646.024,0.0151597,646.024,0.0147934,646.024,0.0148812,646.024,0.014744,646.024,0.0146372,
640.461,0.0152173,640.461,0.014877,640.461,0.0150305,640.461,0.0148338,640.461,0.0146588,
635.035,0.01525,635.035,0.0150945,635.035,0.0151359,635.035,0.0146088,635.035,0.0148339,
629.454,0.0154424,629.454,0.0149557,629.454,0.0149525,629.454,0.0147579,629.454,0.0148784,
624.012,0.0156452,624.012,0.0153707,624.012,0.015157,624.012,0.0152482,624.012,0.0151118,
618.561,0.0153027,618.561,0.0152855,618.561,0.0154444,618.561,0.0150371,618.561,0.0149348,
612.955,0.0152228,612.955,0.0146467,612.955,0.0147902,612.955,0.0146444,612.955,0.0146541,
607.488,0.0147689,607.488,0.0144235,607.488,0.0149515,607.488,0.0142555,607.488,0.0142884,
602.013,0.0145902,602.013,0.0141323,602.013,0.0144999,602.013,0.0140892,602.013,0.0142021,
596.53,0.0142453,596.53,0.0138788,596.53,0.0141999,596.53,0.0136496,596.53,0.0139034,
591.039,0.0137309,591.039,0.0132537,591.039,0.0135974,591.039,0.0133668,591.039,0.0131962,
585.54,0.0130874,585.54,0.0127454,585.54,0.0130755,585.54,0.012685,585.54,0.0128593,
580.033,0.0122758,580.033,0.0121675,580.033,0.0121651,580.033,0.0119254,580.033,0.0119378,
574.519,0.0114404,574.519,0.0109697,574.519,0.0111711,574.519,0.0109935,574.519,0.0110021,
568.998,0.0101879,568.998,0.00979055,568.998,0.0100071,568.998,0.00990764,568.998,0.00995089,
563.469,0.00883544,563.469,0.00842576,563.469,0.0086594,563.469,0.00849087,563.469,0.00844122,
557.932,0.00733338,557.932,0.00697861,557.932,0.00702178,557.932,0.00695599,557.932,0.00690067,
552.538,0.00559421,552.538,0.00546318,552.538,0.00535422,552.538,0.00537637,552.538,0.00521818,
546.987,0.00402912,546.987,0.00377111,546.987,0.00374317,546.987,0.00364626,546.987,0.0038447,
541.429,0.00335791,541.429,0.00290707,541.429,0.00311537,541.429,0.00298469,541.429,0.00302955,
536.014,0.00395944,536.014,0.00359074,536.014,0.00374364,536.014,0.00378829,536.014,0.00384141,
530.441,0.00659919,530.441,0.00613616,530.441,0.00638281,530.441,0.00636886,530.441,0.00618749,
525.013,0.010852,525.013,0.010518,525.013,0.0107954,525.013,0.0106498,525.013,0.0107219,
519.427,0.0158643,519.427,0.0153558,519.427,0.0153293,519.427,0.0157189,519.427,0.0154964,
513.985,0.0201584,513.985,0.0199544,513.985,0.0200441,513.985,0.0201802,513.985,0.0203689,
508.537,0.0234306,508.537,0.0229932,508.537,0.0233786,508.537,0.0231896,508.537,0.0235446,
502.931,0.0251661,502.931,0.0248525,502.931,0.0251113,502.931,0.0251751,502.931,0.0252696,
497.471,0.0261183,497.471,0.0254311,497.471,0.0257187,497.471,0.0255987,497.471,0.0259328,
492.003,0.0253147,492.003,0.0248318,492.003,0.0250473,492.003,0.0251833,492.003,0.0253324,
486.53,0.0241753,486.53,0.0236555,486.53,0.0239244,486.53,0.0236469,486.53,0.0238724,
481.051,0.0225262,481.051,0.0220255,481.051,0.0222891,481.051,0.0221799,481.051,0.0224528,
475.566,0.0220687,475.566,0.0216886,475.566,0.0220218,475.566,0.0218616,475.566,0.0220546,
470.075,0.0250945,470.075,0.0243221,470.075,0.0248436,470.075,0.0248385,470.075,0.0247895,
464.425,0.0298702,464.425,0.0290482,464.425,0.0296201,464.425,0.0295074,464.425,0.0298727,
459.075,0.0332941,459.075,0.0329295,459.075,0.0333782,459.075,0.0333553,459.075,0.0337109,
453.566,0.0358777,453.566,0.0353549,453.566,0.0357884,453.566,0.0357481,453.566,0.0362199,
448.052,0.0374358,448.052,0.0370486,448.052,0.0373601,448.052,0.0372697,448.052,0.0380856,
442.532,0.0378144,442.532,0.0374061,442.532,0.0383013,442.532,0.038289,442.532,0.0385962,
437.007,0.037919,437.007,0.0374765,437.007,0.0379059,437.007,0.0379884,437.007,0.0389054,
431.476,0.0371989,431.476,0.0367681,431.476,0.0373833,431.476,0.0373973,431.476,0.0381246,
425.94,0.0365739,425.94,0.0359618,425.94,0.0367404,425.94,0.0368666,425.94,0.0379698,
420.552,0.0360929,420.552,0.0353911,420.552,0.0365673,420.552,0.0365408,420.552,0.0376385,
415.005,0.0350154,415.005,0.0344252,415.005,0.0353268,415.005,0.0357651,415.005,0.0366659,
409.454,0.0338329,409.454,0.0331999,409.454,0.0341457,409.454,0.0345354,409.454,0.0355128,
404.051,0.0321955,404.051,0.0315601,404.051,0.0325398,404.051,0.0329063,404.051,0.0340895,
398.489,0.0308632,398.489,0.0294352,398.489,0.031052,398.489,0.0315717,398.489,0.0325762,
393.077,0.0298455,393.077,0.0288726,393.077,0.0298134,393.077,0.0304642,393.077,0.0319833,
387.506,0.0297298,387.506,0.029258,387.506,0.0302829,387.506,0.0305897,387.506,0.0322831,
381.929,0.0310707,381.929,0.0304151,381.929,0.0315488,381.929,0.0319793,381.929,0.0336219,
376.503,0.0334828,376.503,0.0329303,376.503,0.0340493,376.503,0.0349301,376.503,0.0366977,
371.073,0.0370876,371.073,0.0364878,371.073,0.0377128,371.073,0.0383925,371.073,0.0409784,
365.482,0.0409274,365.482,0.0402534,365.482,0.0416078,365.482,0.0423107,365.482,0.0442854,
360.043,0.0434107,360.043,0.0426983,360.043,0.0439212,360.043,0.0448848,360.043,0.0467551,
354.444,0.0445995,354.444,0.0438846,354.444,0.0452558,354.444,0.0461189,354.444,0.0480249,
348.996,0.0452128,348.996,0.0440764,348.996,0.0456632,348.996,0.0466098,348.996,0.0489222,
343.544,0.0450606,343.544,0.0442648,343.544,0.0457338,343.544,0.0468242,343.544,0.0491015,
337.932,0.0445914,337.932,0.0436992,337.932,0.0453418,337.932,0.0465933,337.932,0.048993,
332.472,0.0437993,332.472,0.0430411,332.472,0.0447409,332.472,0.046137,332.472,0.0489473,
327.008,0.0430528,327.008,0.0420558,327.008,0.0441255,327.008,0.0457929,327.008,0.0488403,
321.54,0.0434137,321.54,0.0422437,321.54,0.04439,321.54,0.0461749,321.54,0.0497576,
316.068,0.0446347,316.068,0.0428089,316.068,0.0450593,316.068,0.0469673,316.068,0.0510078,
310.436,0.0472667,310.436,0.0438955,310.436,0.0461595,310.436,0.0481098,310.436,0.0527361,
304.957,0.0505459,304.957,0.0449456,304.957,0.0475616,304.957,0.0501743,304.957,0.0551036,
299.474,0.055771,299.474,0.0467096,299.474,0.0510324,299.474,0.0561446,299.474,0.0652115,
293.988,0.074337,293.988,0.0566403,293.988,0.0779738,293.988,0.101819,293.988,0.142373,
288.498,0.181274,288.498,0.120217,288.498,0.254869,288.498,0.398272,288.498,0.658026,
283.005,0.309534,283.005,0.197601,283.005,0.482771,283.005,0.801667,283.005,1.40776,
277.509,0.306727,277.509,0.194762,277.509,0.477878,277.509,0.796541,277.509,1.41312,
272.009,0.26254,272.009,0.1671,272.009,0.40255,272.009,0.670023,272.009,1.19542,
266.506,0.206906,266.506,0.133433,266.506,0.308859,266.506,0.510356,266.506,0.904794,
261,0.168733,261,0.109555,261,0.247807,261,0.406122,261,0.71622,
255.49,0.193205,255.49,0.12519,255.49,0.296077,255.49,0.487644,255.49,0.855346,
249.978,0.304357,249.978,0.192623,249.978,0.497529,249.978,0.838324,249.978,1.49205,
244.496,0.447353,244.496,0.27924,244.496,0.758347,244.496,1.29854,244.496,2.32029,
239.011,0.581796,239.011,0.36092,239.011,0.999424,239.011,1.70374,239.011,2.78901,
233.523,0.725251,233.523,0.452189,233.523,1.25346,233.523,2.13743,233.523,3.09907,
228.032,0.971591,228.032,0.603891,228.032,1.67826,228.032,2.78198,228.032,3.43667,
222.539,1.618,222.539,1.01707,222.539,2.63811,222.539,3.21459,222.539,3.31433,
217.043,2.64103,217.043,1.86297,217.043,2.9734,217.043,3.05892,217.043,3.01503,
211.544,2.98796,211.544,2.37087,211.544,3.09184,211.544,3.17305,211.544,3.12495,
206.043,3.00299,206.043,2.24522,206.043,3.17436,206.043,3.12183,206.043,3.22715,
200.54,2.56575,200.54,1.71616,200.54,3.06464,200.54,3.08717,200.54,3.14361,
200.068,2.50758,200.068,1.66585,200.068,3.06183,200.068,3.04649,200.068,3.04101,

is_2_3_31uM,
is_2_3_31uM
Collection Time: 4/29/2024 11:14:23 AM
Operator Name  :
Scan Software Version: 3.00(339)
Parameter List :
Instrument                        Cary 50
Instrument Version                3.00
Start (nm)                        800.0
Stop (nm)                         200.0
X Mode                            Nanometers
Y Mode                            Abs
UV-Vis Scan Rate (nm/min)         300.00
UV-Vis Data Interval (nm)         0.50
UV-Vis Ave. Time (sec)            0.1000
Beam Mode                         Dual Beam
Baseline Correction               Off
Cycle Mode                        Off
Comments
Method Log     :
Method Name    :
Date/Time stamp: 4/20/2024 5:05:46 PM
Method Modifications:
UVVIS SAT Changed: 4/29/2024 11:08:58 AM, Old:0.0125, New:0.1000
Common SAT Changed: 4/29/2024 11:08:58 AM, Old:0.0125, New:0.1000
Common Interval nm Changed: 4/29/2024 11:08:59 AM, Old:     5.00, New:     0.50
End Method Modifications
<Current Wavelength> , 200.5

is_2_3_15uM,
is_2_3_15uM
Collection Time: 4/29/2024 11:19:25 AM
Operator Name  :
Scan Software Version: 3.00(339)
Parameter List :
Instrument                        Cary 50
Instrument Version                3.00
Start (nm)                        800.0
Stop (nm)                         200.0
X Mode                            Nanometers
Y Mode                            Abs
UV-Vis Scan Rate (nm/min)         300.00
UV-Vis Data Interval (nm)         0.50
UV-Vis Ave. Time (sec)            0.1000
Beam Mode                         Dual Beam
Baseline Correction               Off
Cycle Mode                        Off
Comments
Method Log     :
Method Name    :
Date/Time stamp: 4/20/2024 5:05:46 PM
Method Modifications:
UVVIS SAT Changed: 4/29/2024 11:08:58 AM, Old:0.0125, New:0.1000
Common SAT Changed: 4/29/2024 11:08:58 AM, Old:0.0125, New:0.1000
Common Interval nm Changed: 4/29/2024 11:08:59 AM, Old:     5.00, New:     0.50
End Method Modifications
<Current Wavelength> , 200.5

is_2_3_62uM,
is_2_3_62uM
Collection Time: 4/29/2024 11:22:35 AM
Operator Name  :
Scan Software Version: 3.00(339)
Parameter List :
Instrument                        Cary 50
Instrument Version                3.00
Start (nm)                        800.0
Stop (nm)                         200.0
X Mode                            Nanometers
Y Mode                            Abs
UV-Vis Scan Rate (nm/min)         300.00
UV-Vis Data Interval (nm)         0.50
UV-Vis Ave. Time (sec)            0.1000
Beam Mode                         Dual Beam
Baseline Correction               Off
Cycle Mode                        Off
Comments
Method Log     :
Method Name    :
Date/Time stamp: 4/20/2024 5:05:46 PM
Method Modifications:
UVVIS SAT Changed: 4/29/2024 11:08:58 AM, Old:0.0125, New:0.1000
Common SAT Changed: 4/29/2024 11:08:58 AM, Old:0.0125, New:0.1000
Common Interval nm Changed: 4/29/2024 11:08:59 AM, Old:     5.00, New:     0.50
End Method Modifications
<Current Wavelength> , 200.5

is_2_3_125uM,
is_2_3_125uM
Collection Time: 4/29/2024 11:26:27 AM
Operator Name  :
Scan Software Version: 3.00(339)
Parameter List :
Instrument                        Cary 50
Instrument Version                3.00
Start (nm)                        800.0
Stop (nm)                         200.0
X Mode                            Nanometers
Y Mode                            Abs
UV-Vis Scan Rate (nm/min)         300.00
UV-Vis Data Interval (nm)         0.50
UV-Vis Ave. Time (sec)            0.1000
Beam Mode                         Dual Beam
Baseline Correction               Off
Cycle Mode                        Off
Comments
Method Log     :
Method Name    :
Date/Time stamp: 4/20/2024 5:05:46 PM
Method Modifications:
UVVIS SAT Changed: 4/29/2024 11:08:58 AM, Old:0.0125, New:0.1000
Common SAT Changed: 4/29/2024 11:08:58 AM, Old:0.0125, New:0.1000
Common Interval nm Changed: 4/29/2024 11:08:59 AM, Old:     5.00, New:     0.50
End Method Modifications
<Current Wavelength> , 200.5

is_2_3_250uM1,
is_2_3_250uM1
Collection Time: 4/29/2024 11:30:30 AM
Operator Name  :
Scan Software Version: 3.00(339)
Parameter List :
Instrument                        Cary 50
Instrument Version                3.00
Start (nm)                        800.0
Stop (nm)                         200.0
X Mode                            Nanometers
Y Mode                            Abs
UV-Vis Scan Rate (nm/min)         300.00
UV-Vis Data Interval (nm)         0.50
UV-Vis Ave. Time (sec)            0.1000
Beam Mode                         Dual Beam
Baseline Correction               Off
Cycle Mode                        Off
Comments
Method Log     :
Method Name    :
Date/Time stamp: 4/20/2024 5:05:46 PM
Method Modifications:
UVVIS SAT Changed: 4/29/2024 11:08:58 AM, Old:0.0125, New:0.1000
Common SAT Changed: 4/29/2024 11:08:58 AM, Old:0.0125, New:0.1000
Common Interval nm Changed: 4/29/2024 11:08:59 AM, Old:     5.00, New:     0.50
End Method Modifications
<Current Wavelength> , 200.5