File: silicates_UV_vis/Allylsilicates_plot/is_2_8_allyl_acetate.csv
is_2_8_7uM,,is_2_8_15uM,,is_2_8_31uM,,is_2_8_62uM,,is_2_8_125uM1,,is_2_8_250uM,,
Wavelength (nm),Abs,Wavelength (nm),Abs,Wavelength (nm),Abs,Wavelength (nm),Abs,Wavelength (nm),Abs,Wavelength (nm),Abs,
799.953,-0.000657885,799.953,-0.00038553,799.953,-0.000108863,799.953,-0.000182509,799.953,0.00104462,799.953,0.00115255,
793.005,-0.000887706,793.005,-7.81686e-05,793.005,-0.000436322,793.005,0.000181654,793.005,0.000831813,793.005,0.00187479,
786.038,-0.00204869,786.038,-0.00198521,786.038,-0.00176123,786.038,-0.00127415,786.038,0.000174973,786.038,0.000446244,
779.053,-0.00292451,779.053,-0.00209661,779.053,-0.00170574,779.053,-0.00167975,779.053,-0.00108291,779.053,-0.000341095,
772.048,-0.0030694,772.048,-0.00251678,772.048,-0.00292107,772.048,-0.00307968,772.048,-0.00146103,772.048,-0.000984672,
765.025,-0.00401037,765.025,-0.00309248,765.025,-0.00367369,765.025,-0.00348745,765.025,-0.00258606,765.025,-0.00200345,
757.983,-0.00518715,757.983,-0.00478338,757.983,-0.00472234,757.983,-0.00445222,757.983,-0.00345802,757.983,-0.00290837,
751.065,-0.00652535,751.065,-0.0058266,751.065,-0.00614013,751.065,-0.005584,751.065,-0.00462328,751.065,-0.00436545,
743.987,-0.00841212,743.987,-0.00826534,743.987,-0.00808762,743.987,-0.00781531,743.987,-0.0070537,743.987,-0.00635207,
737.034,-0.00971913,737.034,-0.00960986,737.034,-0.00931494,737.034,-0.00931459,737.034,-0.00856128,737.034,-0.00777285,
730.063,-0.0104329,730.063,-0.00968855,730.063,-0.00980766,730.063,-0.00968126,730.063,-0.00866,730.063,-0.00846234,
722.933,-0.0148388,722.933,-0.0144542,722.933,-0.0141268,722.933,-0.01405,722.933,-0.0129229,722.933,-0.0127413,
715.928,-0.0148991,715.928,-0.0147771,715.928,-0.0148067,715.928,-0.0144433,715.928,-0.0136168,715.928,-0.0130579,
709.051,-0.00919488,709.051,-0.00975593,709.051,-0.00995103,709.051,-0.00969391,709.051,-0.00878808,709.051,-0.00797932,
702.014,-0.000496933,702.014,-0.000921546,702.014,-0.000958431,702.014,-0.000745239,702.014,0.000174532,702.014,0.000712863,
694.961,0.00719839,694.961,0.00782723,694.961,0.00730587,694.961,0.00808771,694.961,0.00889642,694.961,0.00953706,
688.036,0.0129938,688.036,0.0132393,688.036,0.0135648,688.036,0.0145997,688.036,0.0145639,688.036,0.0149217,
680.951,0.01635,680.951,0.0166743,680.951,0.0167427,680.951,0.0182498,680.951,0.0179814,680.951,0.0186706,
673.995,0.0177044,673.995,0.0183155,673.995,0.0181924,673.995,0.0206657,673.995,0.0197305,673.995,0.0199738,
667.024,0.0174484,667.024,0.0174561,667.024,0.0177915,667.024,0.0203099,667.024,0.0193397,667.024,0.0195109,
660.039,0.0155337,660.039,0.0160712,660.039,0.0160896,660.039,0.0184458,660.039,0.0175235,660.039,0.0179676,
653.039,0.0153388,653.039,0.0155182,653.039,0.0155429,653.039,0.0176791,653.039,0.0168572,653.039,0.0173387,
646.024,0.0151819,646.024,0.015869,646.024,0.0155921,646.024,0.0175476,646.024,0.0168043,646.024,0.0175296,
638.995,0.015342,638.995,0.01566,638.995,0.0153518,638.995,0.0166539,638.995,0.0167626,638.995,0.0177266,
631.952,0.0153362,631.952,0.0157846,631.952,0.015422,631.952,0.0160639,631.952,0.0169126,631.952,0.0178723,
625.042,0.0156241,625.042,0.0160172,625.042,0.0157806,625.042,0.0160258,625.042,0.0175603,625.042,0.0181655,
617.972,0.0155647,617.972,0.0155874,617.972,0.0156589,617.972,0.0159453,617.972,0.0170061,617.972,0.0181885,
611.035,0.0151025,611.035,0.0153482,611.035,0.015358,611.035,0.0156107,611.035,0.0166725,611.035,0.0174921,
603.937,0.0146024,603.937,0.0151375,603.937,0.015009,603.937,0.0154821,603.937,0.0168785,603.937,0.017314,
596.974,0.0143204,596.974,0.0145497,596.974,0.0147585,596.974,0.0152062,596.974,0.0162636,596.974,0.0168578,
589.999,0.0139626,589.999,0.0142663,589.999,0.0139602,589.999,0.014646,589.999,0.0156155,589.999,0.0161476,
583.011,0.0133801,583.011,0.0131219,583.011,0.013262,583.011,0.0134883,583.011,0.0145178,583.011,0.0152273,
576.01,0.0120462,576.01,0.0121694,576.01,0.0121722,576.01,0.0124166,576.01,0.0136624,576.01,0.0142091,
568.998,0.010391,568.998,0.0106425,568.998,0.0108654,568.998,0.0109316,568.998,0.0119814,568.998,0.0128638,
561.973,0.00853638,561.973,0.00877579,561.973,0.00881438,561.973,0.00912349,561.973,0.0102669,561.973,0.011172,
554.936,0.00642954,554.936,0.00686769,554.936,0.00685097,554.936,0.00706945,554.936,0.00829175,554.936,0.00935275,
548.038,0.00459208,548.038,0.00485084,548.038,0.00476229,548.038,0.00498667,548.038,0.00620981,548.038,0.00737787,
540.978,0.00356971,540.978,0.00387364,540.978,0.0040339,540.978,0.00418426,540.978,0.00534274,540.978,0.00674145,
534.057,0.00477755,534.057,0.00505494,534.057,0.00521516,534.057,0.00548069,534.057,0.00651404,534.057,0.00793204,
526.974,0.0093866,526.974,0.00958768,526.974,0.00976357,526.974,0.00999473,526.974,0.0110797,526.974,0.0127321,
520.031,0.0157191,520.031,0.0157057,520.031,0.0158763,520.031,0.0162779,520.031,0.0173847,520.031,0.0188825,
512.927,0.0211022,512.927,0.021354,512.927,0.021863,512.927,0.0218642,512.927,0.0230525,512.927,0.0243421,
505.962,0.0246089,505.962,0.0253493,505.962,0.0251391,505.962,0.0256475,505.962,0.0268205,505.962,0.0279019,
498.988,0.0259788,498.988,0.0264423,498.988,0.0264217,498.988,0.026663,498.988,0.028069,498.988,0.0291234,
492.003,0.025584,492.003,0.0258459,492.003,0.0260092,492.003,0.0262907,492.003,0.0274865,492.003,0.0286706,
485.009,0.0236061,485.009,0.023931,485.009,0.0239921,485.009,0.0244382,485.009,0.0257168,485.009,0.0268281,
478.004,0.021962,478.004,0.0223742,478.004,0.0223684,478.004,0.0228873,478.004,0.0241834,478.004,0.0256223,
470.99,0.0246333,470.99,0.0245146,470.99,0.0248361,470.99,0.0252632,470.99,0.0263141,470.99,0.0277336,
463.966,0.0303643,463.966,0.0305225,463.966,0.0303017,463.966,0.0312751,463.966,0.0323448,463.966,0.033776,
456.933,0.0346324,456.933,0.0350941,456.933,0.0349873,456.933,0.035637,456.933,0.0369423,456.933,0.0384806,
450.044,0.03739,450.044,0.0375237,450.044,0.0375428,450.044,0.0377598,450.044,0.0394025,450.044,0.040671,
442.992,0.0382555,442.992,0.0385148,442.992,0.0383805,442.992,0.0392532,442.992,0.0403275,442.992,0.0422408,
435.932,0.0379099,435.932,0.0381959,435.932,0.0381222,435.932,0.0387228,435.932,0.0402176,435.932,0.0417639,
429.016,0.0372736,429.016,0.0375378,429.016,0.0374529,429.016,0.0381081,429.016,0.039667,429.016,0.041406,
421.938,0.0367853,421.938,0.0368081,421.938,0.0369632,421.938,0.0377384,421.938,0.0392451,421.938,0.0410344,
415.005,0.0355937,415.005,0.0354809,415.005,0.0357034,415.005,0.0365757,415.005,0.0382457,415.005,0.0400928,
408.065,0.0337334,408.065,0.0338853,408.065,0.034339,408.065,0.0346289,408.065,0.0366731,408.065,0.0385743,
400.962,0.0312257,400.962,0.03194,400.962,0.0317394,400.962,0.0327668,400.962,0.0347281,400.962,0.0365399,
394.005,0.0300521,394.005,0.0304704,394.005,0.0305753,394.005,0.0317628,394.005,0.0334633,394.005,0.0357007,
387.041,0.0301487,387.041,0.0303149,387.041,0.0306053,387.041,0.032129,387.041,0.0336103,387.041,0.0358362,
380.069,0.0319228,380.069,0.0321585,380.069,0.0327019,380.069,0.0338568,380.069,0.0357876,380.069,0.0383793,
372.935,0.0361944,372.935,0.0364805,372.935,0.0370102,372.935,0.0381616,372.935,0.0403643,372.935,0.0431208,
365.948,0.0411914,365.948,0.0414848,365.948,0.0416962,365.948,0.0426972,365.948,0.0453463,365.948,0.0481616,
358.955,0.0437944,358.955,0.0442352,358.955,0.0443062,358.955,0.0456764,358.955,0.048267,358.955,0.0512369,
351.954,0.0453601,351.954,0.0455907,351.954,0.0458676,351.954,0.0473799,351.954,0.0501228,351.954,0.0531626,
344.946,0.0455757,344.946,0.0460054,344.946,0.0463578,344.946,0.0477455,344.946,0.0506247,344.946,0.0538536,
337.932,0.0451365,337.932,0.0456765,337.932,0.0459149,337.932,0.0472399,337.932,0.0503683,337.932,0.0539301,
331.067,0.0441117,331.067,0.044839,331.067,0.0447411,331.067,0.0463353,331.067,0.0494398,331.067,0.053113,
324.04,0.0435856,324.04,0.0444399,324.04,0.0443593,324.04,0.0462894,324.04,0.0496383,324.04,0.053886,
317.007,0.0457768,317.007,0.0474517,317.007,0.0483005,317.007,0.052073,317.007,0.0577471,317.007,0.0664425,
309.967,0.0597405,309.967,0.0688185,309.967,0.0814413,309.967,0.103207,309.967,0.131378,309.967,0.186421,
303.078,0.148631,303.078,0.218976,303.078,0.334155,303.078,0.537627,303.078,0.870071,303.078,1.43433,
296.026,0.253304,296.026,0.406069,296.026,0.660655,296.026,1.11952,296.026,1.86265,296.026,3.00503,
288.969,0.256608,288.969,0.413353,288.969,0.673474,288.969,1.14743,288.969,1.9175,288.969,3.11519,
282.063,0.201751,282.063,0.315827,282.063,0.50599,282.063,0.85728,282.063,1.43564,282.063,2.47065,
274.995,0.141811,274.995,0.210733,274.995,0.324494,274.995,0.537328,274.995,0.89346,274.995,1.55321,
268.078,0.101421,268.078,0.141016,268.078,0.204909,268.078,0.328561,268.078,0.532227,268.078,0.914932,
261,0.0915589,261,0.127114,261,0.1829,261,0.291871,261,0.468546,261,0.799559,
254.073,0.115833,254.073,0.172464,254.073,0.263307,254.073,0.432758,254.073,0.707881,254.073,1.22261,
247.002,0.1534,247.002,0.24121,247.002,0.38434,247.002,0.649161,247.002,1.08309,247.002,1.88572,
239.951,0.185451,239.951,0.299936,239.951,0.48871,239.951,0.836042,239.951,1.4038,239.951,2.41234,
233.052,0.222812,233.052,0.36009,233.052,0.588057,233.052,1.00418,233.052,1.68387,233.052,2.83645,
225.992,0.312699,225.992,0.499722,225.992,0.82048,225.992,1.39533,225.992,2.31509,225.992,3.4118,
218.927,0.612428,218.927,1.0119,218.927,1.64253,218.927,2.62493,218.927,3.3183,218.927,3.3264,
212.016,1.26953,212.016,2.07751,212.016,2.84883,212.016,3.12487,212.016,3.16147,212.016,3.31302,
204.943,1.54442,204.943,2.44268,204.943,3.0417,204.943,3.18914,204.943,3.2756,204.943,3.33885,
200.068,1.37431,200.068,2.18699,200.068,2.99108,200.068,3.11247,200.068,3.2054,200.068,3.16766,

is_2_8_7uM,
is_2_8_7uM
Collection Time: 4/29/2024 10:38:49 AM
Operator Name  :
Scan Software Version: 3.00(339)
Parameter List :
Instrument                        Cary 50
Instrument Version                3.00
Start (nm)                        800.0
Stop (nm)                         200.0
X Mode                            Nanometers
Y Mode                            Abs
UV-Vis Scan Rate (nm/min)         300.00
UV-Vis Data Interval (nm)         0.50
UV-Vis Ave. Time (sec)            0.1000
Beam Mode                         Dual Beam
Baseline Correction               Off
Cycle Mode                        Off
Comments
Method Log     :
Method Name    :
Date/Time stamp: 4/20/2024 5:05:46 PM
Method Modifications:
UVVIS SAT Changed: 4/29/2024 10:37:33 AM, Old:0.0125, New:0.1000
Common SAT Changed: 4/29/2024 10:37:33 AM, Old:0.0125, New:0.1000
Common Interval nm Changed: 4/29/2024 10:37:34 AM, Old:     5.00, New:     0.50
End Method Modifications
<Current Wavelength> , 200.5

is_2_8_15uM,
is_2_8_15uM
Collection Time: 4/29/2024 10:45:11 AM
Operator Name  :
Scan Software Version: 3.00(339)
Parameter List :
Instrument                        Cary 50
Instrument Version                3.00
Start (nm)                        800.0
Stop (nm)                         200.0
X Mode                            Nanometers
Y Mode                            Abs
UV-Vis Scan Rate (nm/min)         300.00
UV-Vis Data Interval (nm)         0.50
UV-Vis Ave. Time (sec)            0.1000
Beam Mode                         Dual Beam
Baseline Correction               Off
Cycle Mode                        Off
Comments
Method Log     :
Method Name    :
Date/Time stamp: 4/20/2024 5:05:46 PM
Method Modifications:
UVVIS SAT Changed: 4/29/2024 10:37:33 AM, Old:0.0125, New:0.1000
Common SAT Changed: 4/29/2024 10:37:33 AM, Old:0.0125, New:0.1000
Common Interval nm Changed: 4/29/2024 10:37:34 AM, Old:     5.00, New:     0.50
End Method Modifications
<Current Wavelength> , 200.5

is_2_8_31uM,
is_2_8_31uM
Collection Time: 4/29/2024 10:49:08 AM
Operator Name  :
Scan Software Version: 3.00(339)
Parameter List :
Instrument                        Cary 50
Instrument Version                3.00
Start (nm)                        800.0
Stop (nm)                         200.0
X Mode                            Nanometers
Y Mode                            Abs
UV-Vis Scan Rate (nm/min)         300.00
UV-Vis Data Interval (nm)         0.50
UV-Vis Ave. Time (sec)            0.1000
Beam Mode                         Dual Beam
Baseline Correction               Off
Cycle Mode                        Off
Comments
Method Log     :
Method Name    :
Date/Time stamp: 4/20/2024 5:05:46 PM
Method Modifications:
UVVIS SAT Changed: 4/29/2024 10:37:33 AM, Old:0.0125, New:0.1000
Common SAT Changed: 4/29/2024 10:37:33 AM, Old:0.0125, New:0.1000
Common Interval nm Changed: 4/29/2024 10:37:34 AM, Old:     5.00, New:     0.50
End Method Modifications
<Current Wavelength> , 200.5

is_2_8_62uM,
is_2_8_62uM
Collection Time: 4/29/2024 10:52:12 AM
Operator Name  :
Scan Software Version: 3.00(339)
Parameter List :
Instrument                        Cary 50
Instrument Version                3.00
Start (nm)                        800.0
Stop (nm)                         200.0
X Mode                            Nanometers
Y Mode                            Abs
UV-Vis Scan Rate (nm/min)         300.00
UV-Vis Data Interval (nm)         0.50
UV-Vis Ave. Time (sec)            0.1000
Beam Mode                         Dual Beam
Baseline Correction               Off
Cycle Mode                        Off
Comments
Method Log     :
Method Name    :
Date/Time stamp: 4/20/2024 5:05:46 PM
Method Modifications:
UVVIS SAT Changed: 4/29/2024 10:37:33 AM, Old:0.0125, New:0.1000
Common SAT Changed: 4/29/2024 10:37:33 AM, Old:0.0125, New:0.1000
Common Interval nm Changed: 4/29/2024 10:37:34 AM, Old:     5.00, New:     0.50
End Method Modifications
<Current Wavelength> , 200.5

is_2_8_125uM1,
is_2_8_125uM1
Collection Time: 4/29/2024 10:56:22 AM
Operator Name  :
Scan Software Version: 3.00(339)
Parameter List :
Instrument                        Cary 50
Instrument Version                3.00
Start (nm)                        800.0
Stop (nm)                         200.0
X Mode                            Nanometers
Y Mode                            Abs
UV-Vis Scan Rate (nm/min)         300.00
UV-Vis Data Interval (nm)         0.50
UV-Vis Ave. Time (sec)            0.1000
Beam Mode                         Dual Beam
Baseline Correction               Off
Cycle Mode                        Off
Comments
Method Log     :
Method Name    :
Date/Time stamp: 4/20/2024 5:05:46 PM
Method Modifications:
UVVIS SAT Changed: 4/29/2024 10:37:33 AM, Old:0.0125, New:0.1000
Common SAT Changed: 4/29/2024 10:37:33 AM, Old:0.0125, New:0.1000
Common Interval nm Changed: 4/29/2024 10:37:34 AM, Old:     5.00, New:     0.50
End Method Modifications
<Current Wavelength> , 200.5

is_2_8_250uM,
is_2_8_250uM
Collection Time: 4/29/2024 10:59:28 AM
Operator Name  :
Scan Software Version: 3.00(339)
Parameter List :
Instrument                        Cary 50
Instrument Version                3.00
Start (nm)                        800.0
Stop (nm)                         200.0
X Mode                            Nanometers
Y Mode                            Abs
UV-Vis Scan Rate (nm/min)         300.00
UV-Vis Data Interval (nm)         0.50
UV-Vis Ave. Time (sec)            0.1000
Beam Mode                         Dual Beam
Baseline Correction               Off
Cycle Mode                        Off
Comments
Method Log     :
Method Name    :
Date/Time stamp: 4/20/2024 5:05:46 PM
Method Modifications:
UVVIS SAT Changed: 4/29/2024 10:37:33 AM, Old:0.0125, New:0.1000
Common SAT Changed: 4/29/2024 10:37:33 AM, Old:0.0125, New:0.1000
Common Interval nm Changed: 4/29/2024 10:37:34 AM, Old:     5.00, New:     0.50
End Method Modifications
<Current Wavelength> , 200.5