File: silicates_UV_vis/Allylsilicates_plot/mbg_3_127_is.csv
is_2_1_7uM,,mbg_3_127_5_15uM,,mbg_3_127_5_31uM1,,mbg_3_127_5_62uM3,,mbg_3_127_5_125uM2,,mbg_3_127_5_250uM,
Wavelength (nm),Abs,Wavelength (nm),Abs,Wavelength (nm),Abs,Wavelength (nm),Abs,Wavelength (nm),Abs,Wavelength (nm),Abs
799.953,-0.000884296,799.953,-0.00059285,799.953,0.000132608,799.953,0.009366713,799.953,0.009054394,799.953,-0.000893027
793.562,-0.001193359,793.562,-0.001171674,793.562,-0.000614305,793.562,0.009016625,793.562,0.008185752,793.562,-0.001400448
787.015,-0.003075212,787.015,-0.002816971,787.015,-0.002844849,787.015,0.007143154,787.015,0.006214587,787.015,-0.003023031
780.451,-0.003218458,780.451,-0.002914125,780.451,-0.002156787,780.451,0.006925634,780.451,0.006305243,780.451,-0.002782455
774.011,-0.004049507,774.011,-0.003365511,774.011,-0.003334738,774.011,0.006604263,774.011,0.005842604,774.011,-0.003443436
767.555,-0.003976821,767.555,-0.004381851,767.555,-0.00370228,767.555,0.006677045,767.555,0.004940112,767.555,-0.004275285
760.943,-0.005156299,760.943,-0.005164638,760.943,-0.004768172,760.943,0.005493588,760.943,0.004600087,760.943,-0.004974793
754.455,-0.006344725,754.455,-0.006256041,754.455,-0.005994732,754.455,0.003997114,754.455,0.002968709,754.455,-0.006314775
747.953,-0.008044123,747.953,-0.008181574,747.953,-0.007776463,747.953,0.002226116,747.953,0.001224059,747.953,-0.008094433
741.435,-0.009503,741.435,-0.0094411,741.435,-0.009077168,741.435,0.001051543,741.435,0.000271137,741.435,-0.009552889
735.044,-0.0106527,735.044,-0.010361,735.044,-0.009865006,735.044,-1.55E-05,735.044,-0.000492744,735.044,-0.0101336
728.496,-0.0119585,728.496,-0.01174884,728.496,-0.0115488,728.496,-0.00132515,728.496,-0.002284887,728.496,-0.0117895
721.933,-0.0158266,721.933,-0.0158307,721.933,-0.0154762,721.933,-0.005175075,721.933,-0.006216898,721.933,-0.0156189
715.499,-0.0154834,715.499,-0.0156735,715.499,-0.0152634,715.499,-0.005320903,715.499,-0.005862257,715.499,-0.0157082
709.051,-0.0108803,709.051,-0.0111321,709.051,-0.010504,709.051,-0.000285791,709.051,-0.00113429,709.051,-0.0111262
702.445,-0.002548643,702.445,-0.002356003,702.445,-0.002017879,702.445,0.008775554,702.445,0.007211237,702.445,-0.002467623
695.969,0.006091292,695.969,0.006487636,695.969,0.006635619,695.969,0.0169714,695.969,0.0161258,695.969,0.006271022
689.479,0.0117688,689.479,0.011756,689.479,0.01246305,689.479,0.0224545,689.479,0.0215798,689.479,0.0115708
682.976,0.01521035,682.976,0.0151265,682.976,0.0152857,682.976,0.0259832,682.976,0.0250503,682.976,0.0149716
676.46,0.017202,676.46,0.01710478,676.46,0.0170721,676.46,0.0279229,676.46,0.0267008,676.46,0.0168199
669.931,0.0177226,669.931,0.0178009,669.931,0.0180609,669.931,0.0289939,669.931,0.02764705,669.931,0.0181013
663.533,0.0156625,663.533,0.015748,663.533,0.0160083,663.533,0.0267942,663.533,0.0256437,663.533,0.0156358
656.978,0.0151962,656.978,0.0151713,656.978,0.0154145,656.978,0.0262915,656.978,0.0254436,656.978,0.0147971
650.556,0.0147235,650.556,0.0149469,650.556,0.0149729,650.556,0.0264071,650.556,0.0248607,650.556,0.0147887
643.976,0.0148871,643.976,0.01477833,643.976,0.0151614,643.976,0.0260811,643.976,0.0250828,643.976,0.0148672
637.529,0.0149982,637.529,0.0149185,637.529,0.0152668,637.529,0.0260927,637.529,0.0254305,637.529,0.0149383
631.071,0.0148718,631.071,0.0149096,631.071,0.0152624,631.071,0.0259254,631.071,0.0253643,631.071,0.0147566
624.454,0.01512827,624.454,0.0151285,624.454,0.0154721,624.454,0.0262222,624.454,0.0256397,624.454,0.0149248
617.972,0.0147771,617.972,0.0151123,617.972,0.015263,617.972,0.0265248,617.972,0.0255068,617.972,0.0148932
611.478,0.0143319,611.478,0.0145282,611.478,0.0147541,611.478,0.02612103,611.478,0.0253517,611.478,0.0144982
604.973,0.0142284,604.973,0.0143168,604.973,0.0147011,604.973,0.0257156,604.973,0.02485339,604.973,0.01434334
598.457,0.0137533,598.457,0.013824,598.457,0.0142774,598.457,0.0256897,598.457,0.0246262,598.457,0.0138598
591.93,0.0132452,591.93,0.0132905,591.93,0.01384499,591.93,0.0251786,591.93,0.0242337,591.93,0.0135808
585.54,0.0127116,585.54,0.0128147,585.54,0.0130458,585.54,0.0246697,585.54,0.0235706,585.54,0.012819
578.991,0.0118774,578.991,0.0120175,578.991,0.0122223,578.991,0.02406597,578.991,0.0230537,578.991,0.0119601
572.431,0.01052896,572.431,0.0105933,572.431,0.01103058,572.431,0.0227242,572.431,0.0215887,572.431,0.0107777
566.01,0.009126452,566.01,0.009169756,566.01,0.009671395,566.01,0.021274,566.01,0.0203111,566.01,0.009222371
559.429,0.007301785,559.429,0.007418131,559.429,0.007798477,559.429,0.01956,559.429,0.0185257,559.429,0.007657738
552.988,0.005406509,552.988,0.005509527,552.988,0.005791787,552.988,0.0178805,552.988,0.0167373,552.988,0.005546808
546.536,0.003438471,546.536,0.003654407,546.536,0.003920835,546.536,0.0161273,546.536,0.0152408,546.536,0.003684873
539.925,0.002888961,539.925,0.002991541,539.925,0.003447394,539.925,0.0155277,539.925,0.0143919,539.925,0.003194555
533.454,0.004489804,533.454,0.004647756,533.454,0.005065202,533.454,0.0169597,533.454,0.0161795,533.454,0.004854845
526.974,0.008620898,526.974,0.008846006,526.974,0.009387768,526.974,0.0213784,526.974,0.0209657,526.974,0.009035813
520.484,0.0145176,520.484,0.0146651,520.484,0.0154151,520.484,0.0276582,520.484,0.02664474,520.484,0.0152716
513.985,0.0200705,513.985,0.02006492,513.985,0.02083971,513.985,0.0333208,513.985,0.0327602,513.985,0.0212682
507.477,0.0237815,507.477,0.0240867,507.477,0.02488379,507.477,0.0372517,507.477,0.0368378,507.477,0.0259743
500.96,0.0259658,500.96,0.0262454,500.96,0.0270916,500.96,0.0400804,500.96,0.0402474,500.96,0.0302133
494.434,0.0262778,494.434,0.0269258,494.434,0.0284943,494.434,0.0422365,494.434,0.0435964,494.434,0.0356746
488.051,0.0261138,488.051,0.0274679,488.051,0.0296547,488.051,0.0440061,488.051,0.0480443,488.051,0.0444906
481.508,0.0259428,481.508,0.0286175,481.508,0.0325647,481.508,0.0476479,481.508,0.0571214,481.508,0.0610429
474.956,0.0278173,474.956,0.0324609,474.956,0.0383341,474.956,0.054966,474.956,0.07140328,474.956,0.0865909
468.548,0.0341693,468.548,0.0412714,468.548,0.0496892,468.548,0.0691182,468.548,0.0952498,468.548,0.126623
461.98,0.04270931,461.98,0.0519744,461.98,0.0639339,461.98,0.0876748,461.98,0.125049,461.98,0.179813
455.556,0.0492889,455.556,0.0613389,455.556,0.0769417,455.556,0.106443,455.556,0.157663,455.556,0.2402
448.971,0.0544571,448.971,0.0693259,448.971,0.0894995,448.971,0.125731,448.971,0.194554,448.971,0.31377
442.532,0.058461,442.532,0.0772439,442.532,0.102263,442.532,0.148683,442.532,0.240782,442.532,0.409251
435.932,0.0623545,435.932,0.0853758,435.932,0.117452,435.932,0.177403,435.932,0.30236,435.932,0.542294
429.477,0.0681052,429.477,0.0972952,429.477,0.140063,429.477,0.221209,429.477,0.393174,429.477,0.732733
423.016,0.0778408,423.016,0.1181,423.016,0.178641,423.016,0.293219,423.016,0.542181,423.016,1.04664
416.547,0.0943161,416.547,0.150684,416.547,0.237846,416.547,0.404218,416.547,0.768792,416.547,1.51422
410.071,0.114726,410.071,0.194973,410.071,0.3203,410.071,0.550199,410.071,1.0772,410.071,2.15282
403.433,0.139159,403.433,0.246178,403.433,0.412386,403.433,0.720738,403.433,1.4273,403.433,2.87306
396.943,0.162826,396.943,0.295439,396.943,0.502423,396.943,0.888272,396.943,1.76961,396.943,3.40794
390.447,0.184181,390.447,0.339145,390.447,0.582954,390.447,1.03289,390.447,2.06766,390.447,3.97668
383.944,0.200212,383.944,0.370221,383.944,0.637924,383.944,1.13118,383.944,2.2646,383.944,3.86796
377.434,0.207896,377.434,0.384209,377.434,0.661693,377.434,1.17384,377.434,2.35209,377.434,3.87955
371.073,0.210731,371.073,0.385853,371.073,0.661941,371.073,1.17291,371.073,2.33705,371.073,3.87634
364.55,0.20516,364.55,0.370728,364.55,0.631348,364.55,1.12114,364.55,2.25065,364.55,10
358.022,0.192749,358.022,0.344176,358.022,0.582814,358.022,1.03369,358.022,2.06029,358.022,10
351.487,0.176908,351.487,0.310835,351.487,0.522587,351.487,0.927363,351.487,1.83657,351.487,3.68127
344.946,0.157854,344.946,0.272759,344.946,0.454319,344.946,0.807273,344.946,1.58549,344.946,3.16269
338.556,0.140961,338.556,0.2388964,338.556,0.39408,338.556,0.702109,338.556,1.36604,338.556,2.76366
332.004,0.127571,332.004,0.21245,332.004,0.346677,332.004,0.617748,332.004,1.19605,332.004,2.40158
325.446,0.119649,325.446,0.197001,325.446,0.319784,325.446,0.570715,325.446,1.09881,325.446,2.21251
319.039,0.118243,319.039,0.193491,319.039,0.312583,319.039,0.557556,319.039,1.07104,319.039,2.15459
312.471,0.117857,312.471,0.191474,312.471,0.308109,312.471,0.549105,312.471,1.05294,312.471,2.09928
306.053,0.114929,306.053,0.182829,306.053,0.290902,306.053,0.518735,306.053,0.98677,306.053,1.95328
299.474,0.105727,299.474,0.162951,299.474,0.25479,299.474,0.457021,299.474,0.858562,299.474,1.68348
293.047,0.0961707,293.047,0.140982,293.047,0.213169,293.047,0.389148,293.047,0.710566,293.047,1.36012
286.458,0.0875246,286.458,0.121251,286.458,0.175598,286.458,0.328793,286.458,0.577118,286.458,1.06054
280.022,0.0828929,280.022,0.110764,280.022,0.155312,280.022,0.294217,280.022,0.501655,280.022,0.893037
273.423,0.0891096,273.423,0.123751,273.423,0.179549,273.423,0.339294,273.423,0.591978,273.423,1.06815
266.978,0.13859,266.978,0.224295,266.978,0.363441,266.978,0.663837,266.978,1.24825,266.978,2.36167
260.527,0.229566,260.527,0.412316,260.527,0.700312,260.527,1.27703,260.527,2.51731,260.527,10
254.073,0.233487,254.073,0.418884,254.073,0.710826,254.073,1.30079,254.073,2.56858,254.073,10
247.472,0.206226,247.472,0.352471,247.472,0.582267,247.472,1.07264,247.472,2.11577,247.472,4.58252
241.048,0.196518,241.048,0.303873,241.048,0.47276,241.048,0.875773,241.048,1.71062,241.048,3.4136
234.464,0.213411,234.464,0.290993,234.464,0.412467,234.464,0.766048,234.464,1.48248,234.464,2.90678
228.032,0.252353,228.032,0.326066,228.032,0.439953,228.032,0.809848,228.032,1.56061,228.032,3.08659
221.44,0.317561,221.44,0.434216,221.44,0.614149,221.44,1.12246,221.44,2.16919,221.44,4.63752
215.001,0.371104,215.001,0.537498,215.001,0.795785,215.001,1.47148,215.001,2.81787,215.001,4.2788
208.558,0.415541,208.558,0.600793,208.558,0.882803,208.558,1.64209,208.558,3.05553,208.558,4.36759
201.955,0.654572,201.955,0.904367,201.955,1.27437,201.955,2.29287,201.955,3.63246,201.955,3.79627
200.068,0.779601,200.068,1.04925,200.068,1.43704,200.068,2.56155,200.068,3.69711,200.068,3.87834
,,,,,,,,,,,
is_2_1_7uM,,,,,,,,,,,
is_2_1_7uM,,,,,,,,,,,
Collection Time: 4/2/2024 1:03:53 PM,,,,,,,,,,,
Operator Name  :,,,,,,,,,,,
Scan Software Version: 3.00(339),,,,,,,,,,,
Parameter List :,,,,,,,,,,,
Instrument                        Cary 50,,,,,,,,,,,
Instrument Version                3.00,,,,,,,,,,,
Start (nm)                        800.0,,,,,,,,,,,
Stop (nm)                         200.0,,,,,,,,,,,
X Mode                            Nanometers,,,,,,,,,,,
Y Mode                            Abs,,,,,,,,,,,
UV-Vis Scan Rate (nm/min)         300.00,,,,,,,,,,,
UV-Vis Data Interval (nm)         0.50,,,,,,,,,,,
UV-Vis Ave. Time (sec)            0.1000,,,,,,,,,,,
Beam Mode                         Dual Beam,,,,,,,,,,,
Baseline Correction               Off,,,,,,,,,,,
Cycle Mode                        Off,,,,,,,,,,,
Comments,,,,,,,,,,,
Method Log     :,,,,,,,,,,,
Method Name    :,,,,,,,,,,,
Date/Time stamp: 3/8/2024 4:34:39 PM,,,,,,,,,,,
Method Modifications:,,,,,,,,,,,
UVVIS SAT Changed: 4/2/2024 1:01:48 PM, Old:0.0125, New:0.1000,,,,,,,,,
Common SAT Changed: 4/2/2024 1:01:48 PM, Old:0.0125, New:0.1000,,,,,,,,,
Common Interval nm Changed: 4/2/2024 1:01:49 PM, Old:     5.00, New:     0.50,,,,,,,,,
End Method Modifications,,,,,,,,,,,
<Current Wavelength> ,200.5,,,,,,,,,,
,,,,,,,,,,,
mbg_3_127_5_15uM,,,,,,,,,,,
mbg_3_127_5_15uM,,,,,,,,,,,
Collection Time: 4/2/2024 1:09:48 PM,,,,,,,,,,,
Operator Name  :,,,,,,,,,,,
Scan Software Version: 3.00(339),,,,,,,,,,,
Parameter List :,,,,,,,,,,,
Instrument                        Cary 50,,,,,,,,,,,
Instrument Version                3.00,,,,,,,,,,,
Start (nm)                        800.0,,,,,,,,,,,
Stop (nm)                         200.0,,,,,,,,,,,
X Mode                            Nanometers,,,,,,,,,,,
Y Mode                            Abs,,,,,,,,,,,
UV-Vis Scan Rate (nm/min)         300.00,,,,,,,,,,,
UV-Vis Data Interval (nm)         0.50,,,,,,,,,,,
UV-Vis Ave. Time (sec)            0.1000,,,,,,,,,,,
Beam Mode                         Dual Beam,,,,,,,,,,,
Baseline Correction               Off,,,,,,,,,,,
Cycle Mode                        Off,,,,,,,,,,,
Comments,,,,,,,,,,,
Method Log     :,,,,,,,,,,,
Method Name    :,,,,,,,,,,,
Date/Time stamp: 3/8/2024 4:34:39 PM,,,,,,,,,,,
Method Modifications:,,,,,,,,,,,
UVVIS SAT Changed: 4/2/2024 1:01:48 PM, Old:0.0125, New:0.1000,,,,,,,,,
Common SAT Changed: 4/2/2024 1:01:48 PM, Old:0.0125, New:0.1000,,,,,,,,,
Common Interval nm Changed: 4/2/2024 1:01:49 PM, Old:     5.00, New:     0.50,,,,,,,,,
End Method Modifications,,,,,,,,,,,
<Current Wavelength> ,200.5,,,,,,,,,,
,,,,,,,,,,,
mbg_3_127_5_31uM1,,,,,,,,,,,
mbg_3_127_5_31uM1,,,,,,,,,,,
Collection Time: 4/2/2024 1:14:14 PM,,,,,,,,,,,
Operator Name  :,,,,,,,,,,,
Scan Software Version: 3.00(339),,,,,,,,,,,
Parameter List :,,,,,,,,,,,
Instrument                        Cary 50,,,,,,,,,,,
Instrument Version                3.00,,,,,,,,,,,
Start (nm)                        800.0,,,,,,,,,,,
Stop (nm)                         200.0,,,,,,,,,,,
X Mode                            Nanometers,,,,,,,,,,,
Y Mode                            Abs,,,,,,,,,,,
UV-Vis Scan Rate (nm/min)         300.00,,,,,,,,,,,
UV-Vis Data Interval (nm)         0.50,,,,,,,,,,,
UV-Vis Ave. Time (sec)            0.1000,,,,,,,,,,,
Beam Mode                         Dual Beam,,,,,,,,,,,
Baseline Correction               Off,,,,,,,,,,,
Cycle Mode                        Off,,,,,,,,,,,
Comments,,,,,,,,,,,
Method Log     :,,,,,,,,,,,
Method Name    :,,,,,,,,,,,
Date/Time stamp: 3/8/2024 4:34:39 PM,,,,,,,,,,,
Method Modifications:,,,,,,,,,,,
UVVIS SAT Changed: 4/2/2024 1:01:48 PM, Old:0.0125, New:0.1000,,,,,,,,,
Common SAT Changed: 4/2/2024 1:01:48 PM, Old:0.0125, New:0.1000,,,,,,,,,
Common Interval nm Changed: 4/2/2024 1:01:49 PM, Old:     5.00, New:     0.50,,,,,,,,,
End Method Modifications,,,,,,,,,,,
<Current Wavelength> ,200.5,,,,,,,,,,
,,,,,,,,,,,
mbg_3_127_5_62uM3,,,,,,,,,,,
mbg_3_127_5_62uM3,,,,,,,,,,,
Collection Time: 4/2/2024 1:24:01 PM,,,,,,,,,,,
Operator Name  :,,,,,,,,,,,
Scan Software Version: 3.00(339),,,,,,,,,,,
Parameter List :,,,,,,,,,,,
Instrument                        Cary 50,,,,,,,,,,,
Instrument Version                3.00,,,,,,,,,,,
Start (nm)                        800.0,,,,,,,,,,,
Stop (nm)                         200.0,,,,,,,,,,,
X Mode                            Nanometers,,,,,,,,,,,
Y Mode                            Abs,,,,,,,,,,,
UV-Vis Scan Rate (nm/min)         300.00,,,,,,,,,,,
UV-Vis Data Interval (nm)         0.50,,,,,,,,,,,
UV-Vis Ave. Time (sec)            0.1000,,,,,,,,,,,
Beam Mode                         Dual Beam,,,,,,,,,,,
Baseline Correction               Off,,,,,,,,,,,
Cycle Mode                        Off,,,,,,,,,,,
Comments,,,,,,,,,,,
Method Log     :,,,,,,,,,,,
Method Name    :,,,,,,,,,,,
Date/Time stamp: 3/8/2024 4:34:39 PM,,,,,,,,,,,
Method Modifications:,,,,,,,,,,,
UVVIS SAT Changed: 4/2/2024 1:01:48 PM, Old:0.0125, New:0.1000,,,,,,,,,
Common SAT Changed: 4/2/2024 1:01:48 PM, Old:0.0125, New:0.1000,,,,,,,,,
Common Interval nm Changed: 4/2/2024 1:01:49 PM, Old:     5.00, New:     0.50,,,,,,,,,
End Method Modifications,,,,,,,,,,,
<Current Wavelength> ,200.5,,,,,,,,,,
,,,,,,,,,,,
mbg_3_127_5_250uM,,,,,,,,,,,
mbg_3_127_5_250uM,,,,,,,,,,,
Collection Time: 4/2/2024 1:35:58 PM,,,,,,,,,,,
Operator Name  :,,,,,,,,,,,
Scan Software Version: 3.00(339),,,,,,,,,,,
Parameter List :,,,,,,,,,,,
Instrument                        Cary 50,,,,,,,,,,,
Instrument Version                3.00,,,,,,,,,,,
Start (nm)                        800.0,,,,,,,,,,,
Stop (nm)                         200.0,,,,,,,,,,,
X Mode                            Nanometers,,,,,,,,,,,
Y Mode                            Abs,,,,,,,,,,,
UV-Vis Scan Rate (nm/min)         300.00,,,,,,,,,,,
UV-Vis Data Interval (nm)         0.50,,,,,,,,,,,
UV-Vis Ave. Time (sec)            0.1000,,,,,,,,,,,
Beam Mode                         Dual Beam,,,,,,,,,,,
Baseline Correction               Off,,,,,,,,,,,
Cycle Mode                        Off,,,,,,,,,,,
Comments,,,,,,,,,,,
Method Log     :,,,,,,,,,,,
Method Name    :,,,,,,,,,,,
Date/Time stamp: 3/8/2024 4:34:39 PM,,,,,,,,,,,
Method Modifications:,,,,,,,,,,,
UVVIS SAT Changed: 4/2/2024 1:01:48 PM, Old:0.0125, New:0.1000,,,,,,,,,
Common SAT Changed: 4/2/2024 1:01:48 PM, Old:0.0125, New:0.1000,,,,,,,,,
Common Interval nm Changed: 4/2/2024 1:01:49 PM, Old:     5.00, New:     0.50,,,,,,,,,
End Method Modifications,,,,,,,,,,,
<Current Wavelength> ,200.5,,,,,,,,,,
,,,,,,,,,,,
mbg_3_127_5_125uM2,,,,,,,,,,,
mbg_3_127_5_125uM2,,,,,,,,,,,
Collection Time: 4/2/2024 1:20:20 PM,,,,,,,,,,,
Operator Name  :,,,,,,,,,,,
Scan Software Version: 3.00(339),,,,,,,,,,,
Parameter List :,,,,,,,,,,,
Instrument                        Cary 50,,,,,,,,,,,
Instrument Version                3.00,,,,,,,,,,,
Start (nm)                        800.0,,,,,,,,,,,
Stop (nm)                         200.0,,,,,,,,,,,
X Mode                            Nanometers,,,,,,,,,,,
Y Mode                            Abs,,,,,,,,,,,
UV-Vis Scan Rate (nm/min)         300.00,,,,,,,,,,,
UV-Vis Data Interval (nm)         0.50,,,,,,,,,,,
UV-Vis Ave. Time (sec)            0.1000,,,,,,,,,,,
Beam Mode                         Dual Beam,,,,,,,,,,,
Baseline Correction               Off,,,,,,,,,,,
Cycle Mode                        Off,,,,,,,,,,,
Comments,,,,,,,,,,,
Method Log     :,,,,,,,,,,,
Method Name    :,,,,,,,,,,,
Date/Time stamp: 3/8/2024 4:34:39 PM,,,,,,,,,,,
Method Modifications:,,,,,,,,,,,
UVVIS SAT Changed: 4/2/2024 1:01:48 PM, Old:0.0125, New:0.1000,,,,,,,,,
Common SAT Changed: 4/2/2024 1:01:48 PM, Old:0.0125, New:0.1000,,,,,,,,,
Common Interval nm Changed: 4/2/2024 1:01:49 PM, Old:     5.00, New:     0.50,,,,,,,,,
End Method Modifications,,,,,,,,,,,
<Current Wavelength> ,200.5,,,,,,,,,,