File: silicates_UV_vis/Allylsilicates_plot/mbg_3_146_allylmethylcoumarine.csv
mbg_3_146_7uM,,mbg_3_146_15uM,,mbg_3_146_31uM,,mbg_3_146_62uM,,mbg_3_146_125uM,,mbg_3_146_250uM,
Wavelength (nm),Abs,Wavelength (nm),Abs,Wavelength (nm),Abs,Wavelength (nm),Abs,Wavelength (nm),Abs,Wavelength (nm),Abs
799.953,-0.000788702,799.953,-0.000237258,799.953,0.000326597,799.953,0.000167773,799.953,-0.000232497,799.953,0.000939174
793.562,-0.000957398,793.562,-0.001271674,793.562,-0.001146941,793.562,-0.001132896,793.562,-0.000838982,793.562,-0.000481212
787.015,-0.002890005,787.015,-0.002516679,787.015,-0.002174972,787.015,-0.00283878,787.015,-0.002884297,787.015,-0.001543371
780.451,-0.002271548,780.451,-0.002499539,780.451,-0.002095582,780.451,-0.002869433,780.451,-0.002338907,780.451,-0.002175332
774.011,-0.002897565,774.011,-0.002577876,774.011,-0.002693092,774.011,-0.003248469,774.011,-0.002562591,774.011,-0.001818353
767.555,-0.002987195,767.555,-0.002845826,767.555,-0.003079787,767.555,-0.003190604,767.555,-0.002982721,767.555,-0.001989329
760.943,-0.002724271,760.943,-0.003256537,760.943,-0.00272103,760.943,-0.002563054,760.943,-0.002737596,760.943,-0.001849904
754.455,-0.003880418,754.455,-0.003749708,754.455,-0.00377147,754.455,-0.003184334,754.455,-0.003540501,754.455,-0.003084825
747.953,-0.006227973,747.953,-0.006029556,747.953,-0.00588948,747.953,-0.005486263,747.953,-0.006557635,747.953,-0.005105749
741.435,-0.008797867,741.435,-0.00892372,741.435,-0.008596001,741.435,-0.008293739,741.435,-0.008941166,741.435,-0.007711621
735.044,-0.0126523,735.044,-0.0126829,735.044,-0.0126904,735.044,-0.011961,735.044,-0.01304822,735.044,-0.0120781
728.496,-0.0164382,728.496,-0.0164098,728.496,-0.0165344,728.496,-0.01624787,728.496,-0.016682,728.496,-0.0155658
721.933,-0.01894393,721.933,-0.0190694,721.933,-0.0188147,721.933,-0.01897773,721.933,-0.0189425,721.933,-0.018212
715.499,-0.0188704,715.499,-0.0183391,715.499,-0.0184253,715.499,-0.0186444,715.499,-0.0178609,715.499,-0.0179375
709.051,-0.0140026,709.051,-0.0138871,709.051,-0.0138178,709.051,-0.0139593,709.051,-0.01299034,709.051,-0.0131077
702.445,-0.005968282,702.445,-0.005692543,702.445,-0.005490302,702.445,-0.005419698,702.445,-0.00490175,702.445,-0.004858236
695.969,0.002485603,695.969,0.003160944,695.969,0.003098863,695.969,0.003154529,695.969,0.00298002,695.969,0.003907331
689.479,0.007825887,689.479,0.008149615,689.479,0.00832054,689.479,0.008446766,689.479,0.008212078,689.479,0.009194608
682.976,0.0111868,682.976,0.0115676,682.976,0.0118186,682.976,0.0117112,682.976,0.0114434,682.976,0.0122648
676.46,0.013317,676.46,0.0133964,676.46,0.0134988,676.46,0.0133351,676.46,0.0132555,676.46,0.0144212
669.931,0.0137257,669.931,0.01427948,669.931,0.0143208,669.931,0.0139068,669.931,0.0141606,669.931,0.015285
663.533,0.0118725,663.533,0.0118597,663.533,0.01201,663.533,0.01179741,663.533,0.0118282,663.533,0.0128829
656.978,0.0110716,656.978,0.0113318,656.978,0.0116041,656.978,0.0111679,656.978,0.0121156,656.978,0.0123803
650.556,0.0111851,650.556,0.0110256,650.556,0.0114229,650.556,0.0117655,650.556,0.0132188,650.556,0.0124512
643.976,0.0109698,643.976,0.0113874,643.976,0.0116146,643.976,0.0111726,643.976,0.0139748,643.976,0.0122591
637.529,0.0111103,637.529,0.0114054,637.529,0.0117191,637.529,0.0115872,637.529,0.0140461,637.529,0.0120282
631.071,0.0110944,631.071,0.011094,631.071,0.0116281,631.071,0.010948,631.071,0.0113035,631.071,0.0122047
624.454,0.0107364,624.454,0.0111196,624.454,0.01095279,624.454,0.0109045,624.454,0.0108357,624.454,0.01208794
617.972,0.01033622,617.972,0.0108172,617.972,0.01077313,617.972,0.0104505,617.972,0.0111294,617.972,0.0117543
611.478,0.010214,611.478,0.010477,611.478,0.0107675,611.478,0.0102285,611.478,0.0103874,611.478,0.0111661
604.973,0.009862569,604.973,0.0101402,604.973,0.0104849,604.973,0.009984423,604.973,0.0102161,604.973,0.0112142
598.457,0.009622537,598.457,0.009711709,598.457,0.009883013,598.457,0.009413321,598.457,0.009641036,598.457,0.0106825
591.93,0.009025929,591.93,0.009082332,591.93,0.00944877,591.93,0.009249316,591.93,0.009250903,591.93,0.0102017
585.54,0.008695262,585.54,0.008512758,585.54,0.008720034,585.54,0.008619314,585.54,0.008742141,585.54,0.009855922
578.991,0.008068964,578.991,0.007461422,578.991,0.007653285,578.991,0.007286254,578.991,0.007466215,578.991,0.00879444
572.431,0.00726588,572.431,0.006068481,572.431,0.006425262,572.431,0.006139283,572.431,0.006339546,572.431,0.007617719
566.01,0.005844362,566.01,0.004785508,566.01,0.004960822,566.01,0.004770171,566.01,0.004920502,566.01,0.006141147
559.429,0.004021647,559.429,0.003034576,559.429,0.002984477,559.429,0.002996311,559.429,0.002978587,559.429,0.004525612
552.988,0.002004309,552.988,0.000894323,552.988,0.001137806,552.988,0.000932299,552.988,0.001066049,552.988,0.002487217
546.536,-6.81E-05,546.536,-0.001012048,546.536,-0.00090894,546.536,-0.001059462,546.536,-0.000897109,546.536,0.000568414
539.925,-0.000817899,539.925,-0.001603158,539.925,-0.001308685,539.925,-0.001576541,539.925,-0.00134244,539.925,-3.68E-05
533.454,0.000419322,533.454,-4.81E-06,533.454,0.000400407,533.454,0.000255259,533.454,0.000288155,533.454,0.001706126
526.974,0.004045893,526.974,0.004223445,526.974,0.004572121,526.974,0.004208415,526.974,0.004487345,526.974,0.005869104
520.484,0.009929147,520.484,0.0101519,520.484,0.0105746,520.484,0.0101954,520.484,0.0106176,520.484,0.0120438
513.985,0.015232,513.985,0.0153862,513.985,0.0155174,513.985,0.0153138,513.985,0.0158173,513.985,0.0173962
507.477,0.0188401,507.477,0.019084,507.477,0.0193496,507.477,0.0188175,507.477,0.0194036,507.477,0.0210518
500.96,0.0204611,500.96,0.0206255,500.96,0.0210183,500.96,0.0209064,500.96,0.0212013,500.96,0.022955
494.434,0.0202603,494.434,0.020674,494.434,0.0208902,494.434,0.0205768,494.434,0.0211017,494.434,0.0232778
488.051,0.0189569,488.051,0.0190605,488.051,0.0195929,488.051,0.0191163,488.051,0.0198433,488.051,0.0230642
481.508,0.0174671,481.508,0.01760713,481.508,0.0178503,481.508,0.0176359,481.508,0.0183056,481.508,0.0221914
474.956,0.0172579,474.956,0.0173553,474.956,0.0177329,474.956,0.0176817,474.956,0.018501,474.956,0.0224325
468.548,0.0210072,468.548,0.0211508,468.548,0.02176699,468.548,0.0215351,468.548,0.0227283,468.548,0.02722354
461.98,0.0264235,461.98,0.0266089,461.98,0.02746035,461.98,0.02728688,461.98,0.0293572,461.98,0.0356877
455.556,0.0300898,455.556,0.02997989,455.556,0.0313553,455.556,0.0320497,455.556,0.0354338,455.556,0.0453018
448.971,0.0320934,448.971,0.0323769,448.971,0.03389347,448.971,0.0356589,448.971,0.0415693,448.971,0.057808
442.532,0.0328503,442.532,0.0338209,442.532,0.0358984,442.532,0.0393461,442.532,0.0497008,442.532,0.0780791
435.932,0.0329825,435.932,0.0341251,435.932,0.0374751,435.932,0.0439981,435.932,0.0607844,435.932,0.107728
429.477,0.0330097,429.477,0.0342372,429.477,0.0395038,429.477,0.0499675,429.477,0.0776159,429.477,0.153655
423.016,0.0327084,423.016,0.0349036,423.016,0.0428015,423.016,0.0596687,423.016,0.103356,423.016,0.223257
416.547,0.0332336,416.547,0.0362227,416.547,0.04696238,416.547,0.073254,416.547,0.13816,416.547,0.315984
410.071,0.0332722,410.071,0.0375302,410.071,0.0522832,410.071,0.0905323,410.071,0.183799,410.071,0.437881
403.433,0.0330476,403.433,0.038856,403.433,0.0586237,403.433,0.111672,403.433,0.240071,403.433,0.589772
396.943,0.0336896,396.943,0.0410298,396.943,0.0665927,396.943,0.135989,396.943,0.304056,396.943,0.757175
390.447,0.0349725,390.447,0.0451834,390.447,0.0764342,390.447,0.16326,390.447,0.370463,390.447,0.932488
383.944,0.038694,383.944,0.0517687,383.944,0.0894555,383.944,0.194134,383.944,0.441777,383.944,1.11534
377.434,0.0449079,377.434,0.0612724,377.434,0.10599,377.434,0.230807,377.434,0.520247,377.434,1.30567
371.073,0.054106,371.073,0.0761053,371.073,0.131485,371.073,0.281277,371.073,0.619067,371.073,1.52329
364.55,0.0669311,364.55,0.0983534,364.55,0.17303,364.55,0.361407,364.55,0.770086,364.55,1.83743
358.022,0.083347,358.022,0.131524,358.022,0.239818,358.022,0.495417,358.022,1.02562,358.022,2.34135
351.487,0.108198,351.487,0.185834,351.487,0.35755,351.487,0.725964,351.487,1.46594,351.487,3.35981
344.946,0.146904,344.946,0.2705,344.946,0.541369,344.946,1.09382,344.946,2.18403,344.946,10
338.556,0.180473,338.556,0.347297,338.556,0.708478,338.556,1.4295,338.556,2.77443,338.556,4.19477
332.004,0.202422,332.004,0.39903,332.004,0.82108,332.004,1.65286,332.004,3.27764,332.004,10
325.446,0.216794,325.446,0.432935,325.446,0.897899,325.446,1.80563,325.446,3.44724,325.446,10
319.039,0.215007,319.039,0.430046,319.039,0.891151,319.039,1.78557,319.039,3.41622,319.039,10
312.471,0.199862,312.471,0.395888,312.471,0.816216,312.471,1.62286,312.471,3.12193,312.471,10
306.053,0.178088,306.053,0.344318,306.053,0.703027,306.053,1.38052,306.053,2.59855,306.053,10
299.474,0.152412,299.474,0.284573,299.474,0.574762,299.474,1.12024,299.474,2.12595,299.474,4.49243
293.047,0.131389,293.047,0.232631,293.047,0.459333,293.047,0.881022,293.047,1.66088,293.047,3.23169
286.458,0.117571,286.458,0.194039,286.458,0.376489,286.458,0.721885,286.458,1.38289,286.458,2.71358
280.022,0.114104,280.022,0.17954,280.022,0.347913,280.022,0.705045,280.022,1.45466,280.022,3.10777
273.423,0.123315,273.423,0.193792,273.423,0.359964,273.423,0.753534,273.423,1.56912,273.423,3.7252
266.978,0.174263,266.978,0.310342,266.978,0.609779,266.978,1.23584,266.978,2.42529,266.978,4.51921
260.527,0.185888,260.527,0.346547,260.527,0.699489,260.527,1.40053,260.527,2.72032,260.527,10
254.073,0.159252,254.073,0.292573,254.073,0.589658,254.073,1.16252,254.073,2.19281,254.073,5.28912
247.472,0.125796,247.472,0.216111,247.472,0.42257,247.472,0.820001,247.472,1.54357,247.472,3.1148
241.048,0.113713,241.048,0.174798,241.048,0.31817,241.048,0.602136,241.048,1.14358,241.048,2.33213
234.464,0.160439,234.464,0.240225,234.464,0.430727,234.464,0.803222,234.464,1.53856,234.464,3.26087
228.032,0.292897,228.032,0.472034,228.032,0.879062,228.032,1.67243,228.032,3.14846,228.032,10
221.44,0.447655,221.44,0.701976,221.44,1.29869,221.44,2.4565,221.44,3.99647,221.44,10
215.001,0.692578,215.001,1.07028,215.001,1.94538,215.001,3.48018,215.001,3.76983,215.001,10
208.558,1.12718,208.558,1.6981,208.558,2.8383,208.558,3.87555,208.558,3.7539,208.558,4.15374
201.955,2.26665,201.955,2.76655,201.955,3.26172,201.955,3.55213,201.955,3.70948,201.955,3.62454
200.068,2.7621,200.068,3.06918,200.068,3.29941,200.068,3.61101,200.068,3.52279,200.068,4.15425
,,,,,,,,,,,
,,,,,,,,,,mbg_3_146_250uM,
,,,,,,,,,,mbg_3_146_250uM,
,,,,,,,,,,Collection Time: 3/14/2024 4:01:19 PM,
,,,,,,,,,,Operator Name  :,
,,,,,,,,,,Scan Software Version: 3.00(339),
,,,,,,,,,,Parameter List :,
,,,,,,,,,,Instrument                        Cary 50,
,,,,,,,,,,Instrument Version                3.00,
,,,,,,,,,,Start (nm)                        800.0,
,,,,,,,,,,Stop (nm)                         200.0,
,,,,,,,,,,X Mode                            Nanometers,
,,,,,,,,,,Y Mode                            Abs,
,,,,,,,,,,UV-Vis Scan Rate (nm/min)         300.00,
,,,,,,,,,,UV-Vis Data Interval (nm)         0.50,
,,,,,,,,,,UV-Vis Ave. Time (sec)            0.1000,
,,,,,,,,,,Beam Mode                         Dual Beam,
,,,,,,,,,,Baseline Correction               Off,
,,,,,,,,,,Cycle Mode                        Off,
,,,,,,,,,,Comments,
,,,,,,,,,,Method Log     :,
,,,,,,,,,,Method Name    :,
,,,,,,,,,,Date/Time stamp: 3/8/2024 4:34:39 PM,
,,,,,,,,,,Method Modifications:,
 New:0.1000,,,,,,,,,,UVVIS SAT Changed: 3/14/2024 3:37:37 PM, Old:0.0125
 New:0.1000,,,,,,,,,,Common SAT Changed: 3/14/2024 3:37:37 PM, Old:0.0125
 New:     0.50,,,,,,,,,,Common Interval nm Changed: 3/14/2024 3:37:38 PM, Old:     5.00
,,,,,,,,,,End Method Modifications,
,,,,,,,,,,<Current Wavelength> ,200.5
,,,,,,,,,,,
,,,,,,,,,,mbg_3_146_7uM,
,,,,,,,,,,mbg_3_146_7uM,
,,,,,,,,,,Collection Time: 3/14/2024 3:39:06 PM,
,,,,,,,,,,Operator Name  :,
,,,,,,,,,,Scan Software Version: 3.00(339),
,,,,,,,,,,Parameter List :,
,,,,,,,,,,Instrument                        Cary 50,
,,,,,,,,,,Instrument Version                3.00,
,,,,,,,,,,Start (nm)                        800.0,
,,,,,,,,,,Stop (nm)                         200.0,
,,,,,,,,,,X Mode                            Nanometers,
,,,,,,,,,,Y Mode                            Abs,
,,,,,,,,,,UV-Vis Scan Rate (nm/min)         300.00,
,,,,,,,,,,UV-Vis Data Interval (nm)         0.50,
,,,,,,,,,,UV-Vis Ave. Time (sec)            0.1000,
,,,,,,,,,,Beam Mode                         Dual Beam,
,,,,,,,,,,Baseline Correction               Off,
,,,,,,,,,,Cycle Mode                        Off,
,,,,,,,,,,Comments,
,,,,,,,,,,Method Log     :,
,,,,,,,,,,Method Name    :,
,,,,,,,,,,Date/Time stamp: 3/8/2024 4:34:39 PM,
,,,,,,,,,,Method Modifications:,
 New:0.1000,,,,,,,,,,UVVIS SAT Changed: 3/14/2024 3:37:37 PM, Old:0.0125
 New:0.1000,,,,,,,,,,Common SAT Changed: 3/14/2024 3:37:37 PM, Old:0.0125
 New:     0.50,,,,,,,,,,Common Interval nm Changed: 3/14/2024 3:37:38 PM, Old:     5.00
,,,,,,,,,,End Method Modifications,
,,,,,,,,,,<Current Wavelength> ,200.5
,,,,,,,,,,,
,,,,,,,,,,mbg_3_146_15uM,
,,,,,,,,,,mbg_3_146_15uM,
,,,,,,,,,,Collection Time: 3/14/2024 3:42:23 PM,
,,,,,,,,,,Operator Name  :,
,,,,,,,,,,Scan Software Version: 3.00(339),
,,,,,,,,,,Parameter List :,
,,,,,,,,,,Instrument                        Cary 50,
,,,,,,,,,,Instrument Version                3.00,
,,,,,,,,,,Start (nm)                        800.0,
,,,,,,,,,,Stop (nm)                         200.0,
,,,,,,,,,,X Mode                            Nanometers,
,,,,,,,,,,Y Mode                            Abs,
,,,,,,,,,,UV-Vis Scan Rate (nm/min)         300.00,
,,,,,,,,,,UV-Vis Data Interval (nm)         0.50,
,,,,,,,,,,UV-Vis Ave. Time (sec)            0.1000,
,,,,,,,,,,Beam Mode                         Dual Beam,
,,,,,,,,,,Baseline Correction               Off,
,,,,,,,,,,Cycle Mode                        Off,
,,,,,,,,,,Comments,
,,,,,,,,,,Method Log     :,
,,,,,,,,,,Method Name    :,
,,,,,,,,,,Date/Time stamp: 3/8/2024 4:34:39 PM,
,,,,,,,,,,Method Modifications:,
 New:0.1000,,,,,,,,,,UVVIS SAT Changed: 3/14/2024 3:37:37 PM, Old:0.0125
 New:0.1000,,,,,,,,,,Common SAT Changed: 3/14/2024 3:37:37 PM, Old:0.0125
 New:     0.50,,,,,,,,,,Common Interval nm Changed: 3/14/2024 3:37:38 PM, Old:     5.00
,,,,,,,,,,End Method Modifications,
,,,,,,,,,,<Current Wavelength> ,200.5
,,,,,,,,,,,
,,,,,,,,,,mbg_3_146_31uM,
,,,,,,,,,,mbg_3_146_31uM,
,,,,,,,,,,Collection Time: 3/14/2024 3:45:25 PM,
,,,,,,,,,,Operator Name  :,
,,,,,,,,,,Scan Software Version: 3.00(339),
,,,,,,,,,,Parameter List :,
,,,,,,,,,,Instrument                        Cary 50,
,,,,,,,,,,Instrument Version                3.00,
,,,,,,,,,,Start (nm)                        800.0,
,,,,,,,,,,Stop (nm)                         200.0,
,,,,,,,,,,X Mode                            Nanometers,
,,,,,,,,,,Y Mode                            Abs,
,,,,,,,,,,UV-Vis Scan Rate (nm/min)         300.00,
,,,,,,,,,,UV-Vis Data Interval (nm)         0.50,
,,,,,,,,,,UV-Vis Ave. Time (sec)            0.1000,
,,,,,,,,,,Beam Mode                         Dual Beam,
,,,,,,,,,,Baseline Correction               Off,
,,,,,,,,,,Cycle Mode                        Off,
,,,,,,,,,,Comments,
,,,,,,,,,,Method Log     :,
,,,,,,,,,,Method Name    :,
,,,,,,,,,,Date/Time stamp: 3/8/2024 4:34:39 PM,
,,,,,,,,,,Method Modifications:,
 New:0.1000,,,,,,,,,,UVVIS SAT Changed: 3/14/2024 3:37:37 PM, Old:0.0125
 New:0.1000,,,,,,,,,,Common SAT Changed: 3/14/2024 3:37:37 PM, Old:0.0125
 New:     0.50,,,,,,,,,,Common Interval nm Changed: 3/14/2024 3:37:38 PM, Old:     5.00
,,,,,,,,,,End Method Modifications,
,,,,,,,,,,<Current Wavelength> ,200.5
,,,,,,,,,,,
,,,,,,,,,,mbg_3_146_62uM,
,,,,,,,,,,mbg_3_146_62uM,
,,,,,,,,,,Collection Time: 3/14/2024 3:48:25 PM,
,,,,,,,,,,Operator Name  :,
,,,,,,,,,,Scan Software Version: 3.00(339),
,,,,,,,,,,Parameter List :,
,,,,,,,,,,Instrument                        Cary 50,
,,,,,,,,,,Instrument Version                3.00,
,,,,,,,,,,Start (nm)                        800.0,
,,,,,,,,,,Stop (nm)                         200.0,
,,,,,,,,,,X Mode                            Nanometers,
,,,,,,,,,,Y Mode                            Abs,
,,,,,,,,,,UV-Vis Scan Rate (nm/min)         300.00,
,,,,,,,,,,UV-Vis Data Interval (nm)         0.50,
,,,,,,,,,,UV-Vis Ave. Time (sec)            0.1000,
,,,,,,,,,,Beam Mode                         Dual Beam,
,,,,,,,,,,Baseline Correction               Off,
,,,,,,,,,,Cycle Mode                        Off,
,,,,,,,,,,Comments,
,,,,,,,,,,Method Log     :,
,,,,,,,,,,Method Name    :,
,,,,,,,,,,Date/Time stamp: 3/8/2024 4:34:39 PM,
,,,,,,,,,,Method Modifications:,
 New:0.1000,,,,,,,,,,UVVIS SAT Changed: 3/14/2024 3:37:37 PM, Old:0.0125
 New:0.1000,,,,,,,,,,Common SAT Changed: 3/14/2024 3:37:37 PM, Old:0.0125
 New:     0.50,,,,,,,,,,Common Interval nm Changed: 3/14/2024 3:37:38 PM, Old:     5.00
,,,,,,,,,,End Method Modifications,
,,,,,,,,,,<Current Wavelength> ,200.5
,,,,,,,,,,,
,,,,,,,,,,mbg_3_146_125uM,
,,,,,,,,,,mbg_3_146_125uM,
,,,,,,,,,,Collection Time: 3/14/2024 3:58:04 PM,
,,,,,,,,,,Operator Name  :,
,,,,,,,,,,Scan Software Version: 3.00(339),
,,,,,,,,,,Parameter List :,
,,,,,,,,,,Instrument                        Cary 50,
,,,,,,,,,,Instrument Version                3.00,
,,,,,,,,,,Start (nm)                        800.0,
,,,,,,,,,,Stop (nm)                         200.0,
,,,,,,,,,,X Mode                            Nanometers,
,,,,,,,,,,Y Mode                            Abs,
,,,,,,,,,,UV-Vis Scan Rate (nm/min)         300.00,
,,,,,,,,,,UV-Vis Data Interval (nm)         0.50,
,,,,,,,,,,UV-Vis Ave. Time (sec)            0.1000,
,,,,,,,,,,Beam Mode                         Dual Beam,
,,,,,,,,,,Baseline Correction               Off,
,,,,,,,,,,Cycle Mode                        Off,
,,,,,,,,,,Comments,
,,,,,,,,,,Method Log     :,
,,,,,,,,,,Method Name    :,
,,,,,,,,,,Date/Time stamp: 3/8/2024 4:34:39 PM,
,,,,,,,,,,Method Modifications:,
 New:0.1000,,,,,,,,,,UVVIS SAT Changed: 3/14/2024 3:37:37 PM, Old:0.0125
 New:0.1000,,,,,,,,,,Common SAT Changed: 3/14/2024 3:37:37 PM, Old:0.0125
 New:     0.50,,,,,,,,,,Common Interval nm Changed: 3/14/2024 3:37:38 PM, Old:     5.00
,,,,,,,,,,End Method Modifications,
,,,,,,,,,,<Current Wavelength> ,200.5