File: silicates_UV_vis/Allylsilicates_plot/mbg_3_138_allylcatecholsilicate.csv
mbg_3_138_250uM,,mbg_3_138_7uM,,mbg_3_138_15uM,,mbg_3_138_31uM,,mbg_3_138_62uM,,mbg_3_138_125uM,,mbg_3_138_250uM,,
Wavelength (nm),Abs,Wavelength (nm),Abs,Wavelength (nm),Abs,Wavelength (nm),Abs,Wavelength (nm),Abs,Wavelength (nm),Abs,Wavelength (nm),Abs,
799.953,0.000936658,799.953,-0.000297276,799.953,-0.000202019,799.953,0.000261087,799.953,0.000135172,799.953,-0.000164862,799.953,0.000936658,
792.031,-0.000629608,792.031,-0.00138275,792.031,-0.00166268,792.031,-0.00110315,792.031,-0.0016161,792.031,-0.00131219,792.031,-0.000629608,
783.945,-0.00157907,783.945,-0.00223606,783.945,-0.00216833,783.945,-0.00211114,783.945,-0.00184764,783.945,-0.00235137,783.945,-0.00157907,
775.973,-0.00170703,775.973,-0.00337327,775.973,-0.00251004,775.973,-0.00299511,775.973,-0.00287257,775.973,-0.00311551,775.973,-0.00170703,
767.977,-0.0023369,767.977,-0.00299311,767.977,-0.00287854,767.977,-0.00360042,767.977,-0.00338344,767.977,-0.00338329,767.977,-0.0023369,
759.957,-0.00182676,759.957,-0.00321311,759.957,-0.00300493,759.957,-0.00293387,759.957,-0.00337954,759.957,-0.00287375,759.957,-0.00182676,
752.054,-0.00333494,752.054,-0.00417823,752.054,-0.00381289,752.054,-0.00437278,752.054,-0.00436817,752.054,-0.00424088,752.054,-0.00333494,
743.987,-0.00643706,743.987,-0.00767474,743.987,-0.00783601,743.987,-0.00740335,743.987,-0.00776314,743.987,-0.00753667,743.987,-0.00643706,
736.039,-0.0111133,736.039,-0.012149,736.039,-0.0118703,736.039,-0.0118795,736.039,-0.0118237,736.039,-0.0120484,736.039,-0.0111133,
728.068,-0.0154363,728.068,-0.0172228,728.068,-0.0169182,728.068,-0.0166595,728.068,-0.0167035,728.068,-0.0168212,728.068,-0.0154363,
719.933,-0.0182462,719.933,-0.0192637,719.933,-0.0192175,719.933,-0.0190125,719.933,-0.0195712,719.933,-0.0193308,719.933,-0.0182462,
712.062,-0.0160131,712.062,-0.0172632,712.062,-0.0171872,712.062,-0.0171685,712.062,-0.0173029,712.062,-0.0169058,712.062,-0.0160131,
704.026,-0.0075034,704.026,-0.00850219,704.026,-0.00811135,704.026,-0.00860894,704.026,-0.00837805,704.026,-0.00832843,704.026,-0.0075034,
695.969,0.00359066,695.969,0.00257184,695.969,0.00305947,695.969,0.00228432,695.969,0.00252742,695.969,0.00234928,695.969,0.00359066,
688.036,0.00967703,688.036,0.00835392,688.036,0.00901906,688.036,0.00872851,688.036,0.00863624,688.036,0.0090569,688.036,0.00967703,
679.937,0.0134064,679.937,0.0118957,679.937,0.0122455,679.937,0.0121031,679.937,0.0121553,679.937,0.0123759,679.937,0.0134064,
671.963,0.0149192,671.963,0.0135305,671.963,0.0135847,671.963,0.0136869,671.963,0.0138879,671.963,0.0137056,671.963,0.0149192,
663.97,0.0127594,663.97,0.0114525,663.97,0.0116416,663.97,0.0116463,663.97,0.0115398,663.97,0.0118676,663.97,0.0127594,
655.957,0.0124341,655.957,0.0110516,655.957,0.0110899,655.957,0.0107704,655.957,0.0107375,655.957,0.0110334,655.957,0.0124341,
648.072,0.012676,648.072,0.0112774,648.072,0.0112689,648.072,0.0113332,648.072,0.0111297,648.072,0.0114858,648.072,0.012676,
640.021,0.0119455,640.021,0.0109133,640.021,0.010965,640.021,0.010744,640.021,0.0109989,640.021,0.0108419,640.021,0.0119455,
631.952,0.011592,631.952,0.0105944,631.952,0.0106786,631.952,0.0106856,631.952,0.0106798,631.952,0.0111011,631.952,0.011592,
624.012,0.0113344,624.012,0.0103701,624.012,0.0106879,624.012,0.0105177,624.012,0.0103918,624.012,0.0107672,624.012,0.0113344,
616.054,0.011231,616.054,0.00986013,616.054,0.0100759,616.054,0.0101216,616.054,0.0101478,616.054,0.0105844,616.054,0.011231,
607.931,0.010829,607.931,0.00965332,607.931,0.00971073,607.931,0.00948316,607.931,0.0100037,607.931,0.0101441,607.931,0.010829,
599.939,0.0103021,599.939,0.00932101,599.939,0.00923895,599.939,0.00902233,599.939,0.00955961,599.939,0.00934807,599.939,0.0103021,
591.93,0.00971851,591.93,0.00843782,591.93,0.00848652,591.93,0.00865364,591.93,0.0087694,591.93,0.00864709,591.93,0.00971851,
584.052,0.00878493,584.052,0.00758387,584.052,0.00779621,584.052,0.00770248,584.052,0.00769347,584.052,0.00793138,584.052,0.00878493,
576.01,0.00755611,576.01,0.0063121,576.01,0.00661404,576.01,0.00652245,576.01,0.0064818,576.01,0.00674892,576.01,0.00755611,
567.952,0.00577917,567.952,0.0046144,567.952,0.00462921,567.952,0.00482699,567.952,0.00476242,567.952,0.00466437,567.952,0.00577917,
560.028,0.00360512,560.028,0.00249841,560.028,0.00240436,560.028,0.00250339,560.028,0.00257798,560.028,0.00264231,560.028,0.00360512,
551.938,0.00110451,551.938,-8.77446e-05,551.938,3.96591e-05,551.938,1.94145e-06,551.938,0.000213405,551.938,0.00038893,551.938,0.00110451,
543.983,-0.000945671,543.983,-0.00215256,543.983,-0.00202247,543.983,-0.00202849,543.983,-0.002027,543.983,-0.00196098,543.983,-0.000945671,
536.014,-0.000433529,536.014,-0.00173797,536.014,-0.00149322,536.014,-0.0015298,536.014,-0.00136788,536.014,-0.00143012,536.014,-0.000433529,
528.03,0.00379093,528.03,0.00244223,528.03,0.00257624,528.03,0.00264653,528.03,0.0025484,528.03,0.0030662,528.03,0.00379093,
520.031,0.010817,520.031,0.0097511,520.031,0.00960991,520.031,0.00953425,520.031,0.00963625,520.031,0.00972868,520.031,0.010817,
512.019,0.0169807,512.019,0.0156238,512.019,0.0161195,512.019,0.0162594,512.019,0.0161012,512.019,0.0160736,512.019,0.0169807,
503.992,0.0204825,503.992,0.0194292,503.992,0.0193652,503.992,0.0193952,503.992,0.0192794,503.992,0.0195787,503.992,0.0204825,
495.953,0.0212313,495.953,0.0199585,495.953,0.0200558,495.953,0.0201104,495.953,0.0204408,495.953,0.0201866,495.953,0.0212313,
488.051,0.0197419,488.051,0.0185049,488.051,0.0185054,488.051,0.0185003,488.051,0.0184253,488.051,0.0186045,488.051,0.0197419,
479.985,0.0175719,479.985,0.0158682,479.985,0.0161905,479.985,0.0163045,479.985,0.0163199,479.985,0.0165873,479.985,0.0175719,
472.058,0.0188081,472.058,0.0174542,472.058,0.0174042,472.058,0.0176535,472.058,0.017551,472.058,0.0178169,472.058,0.0188081,
463.966,0.0252334,463.966,0.0234679,463.966,0.0236261,463.966,0.0237408,463.966,0.0237444,463.966,0.0240564,463.966,0.0252334,
456.015,0.0301631,456.015,0.0286153,456.015,0.0287688,456.015,0.0288856,456.015,0.0290965,456.015,0.0290891,456.015,0.0301631,
448.052,0.0326644,448.052,0.0309225,448.052,0.0312217,448.052,0.031369,448.052,0.0311614,448.052,0.0312729,448.052,0.0326644,
439.923,0.0336053,439.923,0.0318146,439.923,0.0320368,439.923,0.0320551,439.923,0.0322973,439.923,0.032303,439.923,0.0336053,
431.937,0.0326664,431.937,0.0308142,431.937,0.0310249,431.937,0.031124,431.937,0.0311673,431.937,0.0313356,431.937,0.0326664,
423.939,0.031897,423.939,0.0303787,423.939,0.0301367,423.939,0.0300852,423.939,0.0301921,423.939,0.0303431,423.939,0.031897,
415.93,0.03102,415.93,0.0288966,415.93,0.0289545,415.93,0.0293337,415.93,0.0294446,415.93,0.0295165,415.93,0.03102,
408.065,0.0290721,408.065,0.0266777,408.065,0.0269906,408.065,0.0266673,408.065,0.0273167,408.065,0.0272845,408.065,0.0290721,
400.035,0.0269164,400.035,0.0243077,400.035,0.024652,400.035,0.0245414,400.035,0.0247123,400.035,0.0252089,400.035,0.0269164,
391.994,0.0257118,391.994,0.0231337,391.994,0.0231363,391.994,0.0230273,391.994,0.0234213,391.994,0.0240056,391.994,0.0257118,
383.944,0.0269567,383.944,0.0237529,383.944,0.024008,383.944,0.0239217,383.944,0.0244061,383.944,0.0248769,383.944,0.0269567,
376.038,0.0308038,376.038,0.0272263,376.038,0.0272227,376.038,0.027792,376.038,0.0281669,376.038,0.0286168,376.038,0.0308038,
367.968,0.0367977,367.968,0.0321484,367.968,0.0322647,367.968,0.0326147,367.968,0.0330265,367.968,0.0337222,367.968,0.0367977,
360.043,0.0411263,360.043,0.0359317,360.043,0.036326,360.043,0.0366888,360.043,0.0370525,360.043,0.0382698,360.043,0.0411263,
351.954,0.0430581,351.954,0.0370848,351.954,0.0375943,351.954,0.0378391,351.954,0.0383654,351.954,0.0397774,351.954,0.0430581,
344.012,0.0440153,344.012,0.0373542,344.012,0.037618,344.012,0.038027,344.012,0.0387828,344.012,0.0402083,344.012,0.0440153,
336.061,0.0437969,336.061,0.0364076,336.061,0.0367412,336.061,0.037251,336.061,0.0382171,336.061,0.0397521,336.061,0.0437969,
327.945,0.0437008,327.945,0.03513,327.945,0.0354849,327.945,0.03603,327.945,0.0372517,327.945,0.0389616,327.945,0.0437008,
319.977,0.0446621,319.977,0.035194,319.977,0.0356024,319.977,0.0363556,319.977,0.0374513,319.977,0.039375,319.977,0.0446621,
312.001,0.047461,312.001,0.0371323,312.001,0.0372152,312.001,0.0394218,312.001,0.0389822,312.001,0.0415771,312.001,0.047461,
304.018,0.0571509,304.018,0.0386344,304.018,0.0386746,304.018,0.0426466,304.018,0.0419927,304.018,0.0467295,304.018,0.0571509,
296.026,0.257305,296.026,0.0492178,296.026,0.0569849,296.026,0.0708122,296.026,0.0929899,296.026,0.147067,296.026,0.257305,
288.028,1.55343,288.028,0.103335,288.028,0.158178,288.028,0.248724,288.028,0.430836,288.028,0.794825,288.028,1.55343,
280.022,2.09865,280.022,0.120398,280.022,0.196002,280.022,0.326873,280.022,0.580512,280.022,1.08589,280.022,2.09865,
272.009,1.52604,272.009,0.0975432,272.009,0.155279,272.009,0.251552,272.009,0.427738,272.009,0.793719,272.009,1.52604,
263.989,0.75152,263.989,0.066055,263.989,0.0954698,263.989,0.142932,263.989,0.223118,263.989,0.402304,263.989,0.75152,
255.963,0.325922,255.963,0.0473327,255.963,0.0600218,255.963,0.0793059,255.963,0.109293,255.963,0.181049,255.963,0.325922,
247.942,0.228612,247.942,0.050271,247.942,0.058189,247.942,0.06982,247.942,0.0882954,247.942,0.133731,247.942,0.228612,
239.951,0.612727,239.951,0.0891975,239.951,0.11128,239.951,0.140557,239.951,0.200436,239.951,0.326658,239.951,0.612727,
231.954,1.88763,231.954,0.194965,231.954,0.270266,231.954,0.379298,231.954,0.570421,231.954,1.00643,231.954,1.88763,
223.952,3.07867,223.952,0.334812,223.952,0.463414,223.952,0.661457,223.952,1.00013,223.952,1.75545,223.952,3.07867,
215.943,3.46545,215.943,0.507888,215.943,0.672457,215.943,0.916324,215.943,1.3613,215.943,2.2904,215.943,3.46545,
207.93,3.68367,207.93,1.16171,207.93,1.54003,207.93,2.00818,207.93,2.90952,207.93,3.4939,207.93,3.68367,
200.068,3.49592,200.068,2.83561,200.068,2.95416,200.068,3.01423,200.068,3.18891,200.068,3.28145,200.068,3.49592,

mbg_3_138_250uM,
mbg_3_138_250uM
Collection Time: 3/11/2024 5:31:41 PM
Operator Name  :
Scan Software Version: 3.00(339)
Parameter List :
Instrument                        Cary 50
Instrument Version                3.00
Start (nm)                        800.0
Stop (nm)                         200.0
X Mode                            Nanometers
Y Mode                            Abs
UV-Vis Scan Rate (nm/min)         300.00
UV-Vis Data Interval (nm)         0.50
UV-Vis Ave. Time (sec)            0.1000
Beam Mode                         Dual Beam
Baseline Correction               Off
Cycle Mode                        Off
Comments
Method Log     :
Method Name    :
Date/Time stamp: 3/8/2024 4:34:39 PM
Method Modifications:
UVVIS SAT Changed: 3/11/2024 5:07:04 PM, Old:0.0125, New:0.1000
Common SAT Changed: 3/11/2024 5:07:04 PM, Old:0.0125, New:0.1000
Common Interval nm Changed: 3/11/2024 5:07:05 PM, Old:     5.00, New:     0.50
End Method Modifications
<Current Wavelength> , 200.5

mbg_3_138_7uM,
mbg_3_138_7uM
Collection Time: 3/11/2024 5:08:31 PM
Operator Name  :
Scan Software Version: 3.00(339)
Parameter List :
Instrument                        Cary 50
Instrument Version                3.00
Start (nm)                        800.0
Stop (nm)                         200.0
X Mode                            Nanometers
Y Mode                            Abs
UV-Vis Scan Rate (nm/min)         300.00
UV-Vis Data Interval (nm)         0.50
UV-Vis Ave. Time (sec)            0.1000
Beam Mode                         Dual Beam
Baseline Correction               Off
Cycle Mode                        Off
Comments
Method Log     :
Method Name    :
Date/Time stamp: 3/8/2024 4:34:39 PM
Method Modifications:
UVVIS SAT Changed: 3/11/2024 5:07:04 PM, Old:0.0125, New:0.1000
Common SAT Changed: 3/11/2024 5:07:04 PM, Old:0.0125, New:0.1000
Common Interval nm Changed: 3/11/2024 5:07:05 PM, Old:     5.00, New:     0.50
End Method Modifications
<Current Wavelength> , 200.5

mbg_3_138_15uM,
mbg_3_138_15uM
Collection Time: 3/11/2024 5:12:22 PM
Operator Name  :
Scan Software Version: 3.00(339)
Parameter List :
Instrument                        Cary 50
Instrument Version                3.00
Start (nm)                        800.0
Stop (nm)                         200.0
X Mode                            Nanometers
Y Mode                            Abs
UV-Vis Scan Rate (nm/min)         300.00
UV-Vis Data Interval (nm)         0.50
UV-Vis Ave. Time (sec)            0.1000
Beam Mode                         Dual Beam
Baseline Correction               Off
Cycle Mode                        Off
Comments
Method Log     :
Method Name    :
Date/Time stamp: 3/8/2024 4:34:39 PM
Method Modifications:
UVVIS SAT Changed: 3/11/2024 5:07:04 PM, Old:0.0125, New:0.1000
Common SAT Changed: 3/11/2024 5:07:04 PM, Old:0.0125, New:0.1000
Common Interval nm Changed: 3/11/2024 5:07:05 PM, Old:     5.00, New:     0.50
End Method Modifications
<Current Wavelength> , 200.5

mbg_3_138_31uM,
mbg_3_138_31uM
Collection Time: 3/11/2024 5:19:55 PM
Operator Name  :
Scan Software Version: 3.00(339)
Parameter List :
Instrument                        Cary 50
Instrument Version                3.00
Start (nm)                        800.0
Stop (nm)                         200.0
X Mode                            Nanometers
Y Mode                            Abs
UV-Vis Scan Rate (nm/min)         300.00
UV-Vis Data Interval (nm)         0.50
UV-Vis Ave. Time (sec)            0.1000
Beam Mode                         Dual Beam
Baseline Correction               Off
Cycle Mode                        Off
Comments
Method Log     :
Method Name    :
Date/Time stamp: 3/8/2024 4:34:39 PM
Method Modifications:
UVVIS SAT Changed: 3/11/2024 5:07:04 PM, Old:0.0125, New:0.1000
Common SAT Changed: 3/11/2024 5:07:04 PM, Old:0.0125, New:0.1000
Common Interval nm Changed: 3/11/2024 5:07:05 PM, Old:     5.00, New:     0.50
End Method Modifications
<Current Wavelength> , 200.5

mbg_3_138_62uM,
mbg_3_138_62uM
Collection Time: 3/11/2024 5:22:45 PM
Operator Name  :
Scan Software Version: 3.00(339)
Parameter List :
Instrument                        Cary 50
Instrument Version                3.00
Start (nm)                        800.0
Stop (nm)                         200.0
X Mode                            Nanometers
Y Mode                            Abs
UV-Vis Scan Rate (nm/min)         300.00
UV-Vis Data Interval (nm)         0.50
UV-Vis Ave. Time (sec)            0.1000
Beam Mode                         Dual Beam
Baseline Correction               Off
Cycle Mode                        Off
Comments
Method Log     :
Method Name    :
Date/Time stamp: 3/8/2024 4:34:39 PM
Method Modifications:
UVVIS SAT Changed: 3/11/2024 5:07:04 PM, Old:0.0125, New:0.1000
Common SAT Changed: 3/11/2024 5:07:04 PM, Old:0.0125, New:0.1000
Common Interval nm Changed: 3/11/2024 5:07:05 PM, Old:     5.00, New:     0.50
End Method Modifications
<Current Wavelength> , 200.5

mbg_3_138_125uM,
mbg_3_138_125uM
Collection Time: 3/11/2024 5:27:58 PM
Operator Name  :
Scan Software Version: 3.00(339)
Parameter List :
Instrument                        Cary 50
Instrument Version                3.00
Start (nm)                        800.0
Stop (nm)                         200.0
X Mode                            Nanometers
Y Mode                            Abs
UV-Vis Scan Rate (nm/min)         300.00
UV-Vis Data Interval (nm)         0.50
UV-Vis Ave. Time (sec)            0.1000
Beam Mode                         Dual Beam
Baseline Correction               Off
Cycle Mode                        Off
Comments
Method Log     :
Method Name    :
Date/Time stamp: 3/8/2024 4:34:39 PM
Method Modifications:
UVVIS SAT Changed: 3/11/2024 5:07:04 PM, Old:0.0125, New:0.1000
Common SAT Changed: 3/11/2024 5:07:04 PM, Old:0.0125, New:0.1000
Common Interval nm Changed: 3/11/2024 5:07:05 PM, Old:     5.00, New:     0.50
End Method Modifications
<Current Wavelength> , 200.5

mbg_3_138_250uM,
mbg_3_138_250uM
Collection Time: 3/11/2024 5:31:41 PM
Operator Name  :
Scan Software Version: 3.00(339)
Parameter List :
Instrument                        Cary 50
Instrument Version                3.00
Start (nm)                        800.0
Stop (nm)                         200.0
X Mode                            Nanometers
Y Mode                            Abs
UV-Vis Scan Rate (nm/min)         300.00
UV-Vis Data Interval (nm)         0.50
UV-Vis Ave. Time (sec)            0.1000
Beam Mode                         Dual Beam
Baseline Correction               Off
Cycle Mode                        Off
Comments
Method Log     :
Method Name    :
Date/Time stamp: 3/8/2024 4:34:39 PM
Method Modifications:
UVVIS SAT Changed: 3/11/2024 5:07:04 PM, Old:0.0125, New:0.1000
Common SAT Changed: 3/11/2024 5:07:04 PM, Old:0.0125, New:0.1000
Common Interval nm Changed: 3/11/2024 5:07:05 PM, Old:     5.00, New:     0.50
End Method Modifications
<Current Wavelength> , 200.5